# Calibration scan as function of frequency offset from I2 line
# calibration scan data aquired on 18-Oct-17 at 19:01 UT
# file created on 25-Oct-17 at 13:10 UT
# t_begin_cal_pulse= 1.50e-06 ;  start time of cal pulse (sec).
# t_end_cal_pulse=   2.10e-06 ;  end time of cal pulse (sec).
# pulse_durration=   5.00e-08 ;  laser pulse durration (sec).
# ratio of mol to combined channel gain =   1.5 
# Cam = 1.478e-04 
# Min iodine transmission =    2.2e-04,  1/(min_trans) =  4.6e+03
# 
# freq(GHz)  combined  molecular i2_measured i2_theory
-45.06000     0.07345     0.11437     0.93710     0.82820    
-45.03000     0.07345     0.11437     0.93710     0.83550    
-45.00000     0.07345     0.11437     0.93710     0.84180    
-44.97000     0.07345     0.11437     0.93710     0.84690    
-44.94000     0.07345     0.11437     0.93710     0.85100    
-44.91000     0.07345     0.11437     0.93710     0.85420    
-44.88000     0.07345     0.11437     0.93710     0.85670    
-44.85000     0.07345     0.11437     0.93710     0.85850    
-44.82000     0.07345     0.11437     0.93710     0.85980    
-44.79000     0.07345     0.11437     0.93710     0.86080    
-44.76000     0.07345     0.11437     0.93710     0.86140    
-44.73000     0.07345     0.11437     0.93710     0.86190    
-44.70000     0.07345     0.11437     0.93710     0.86220    
-44.67000     0.07345     0.11437     0.93710     0.86240    
-44.64000     0.07345     0.11437     0.93710     0.86250    
-44.61000     0.07345     0.11437     0.93710     0.86260    
-44.58000     0.07345     0.11437     0.93710     0.86260    
-44.55000     0.07345     0.11437     0.93710     0.86260    
-44.52000     0.07345     0.11437     0.93710     0.86260    
-44.49000     0.07345     0.11437     0.93710     0.86250    
-44.46000     0.07345     0.11437     0.93710     0.86240    
-44.43000     0.07345     0.11437     0.93710     0.86230    
-44.40000     0.07345     0.11437     0.93710     0.86210    
-44.37000     0.07345     0.11437     0.93710     0.86200    
-44.34000     0.07345     0.11437     0.93710     0.86180    
-44.31000     0.07345     0.11437     0.93710     0.86170    
-44.28000     0.07345     0.11437     0.93710     0.86150    
-44.25000     0.07345     0.11437     0.93710     0.86130    
-44.22000     0.07345     0.11437     0.93710     0.86120    
-44.19000     0.07345     0.11437     0.93710     0.86100    
-44.16000     0.07345     0.11437     0.93710     0.86090    
-44.13000     0.07345     0.11437     0.93710     0.86070    
-44.10000     0.07345     0.11437     0.93710     0.86060    
-44.07000     0.07345     0.11437     0.93710     0.86040    
-44.04000     0.07345     0.11437     0.93710     0.86020    
-44.01000     0.07345     0.11437     0.93710     0.86000    
-43.98000     0.07345     0.11437     0.93710     0.85980    
-43.95000     0.07345     0.11437     0.93710     0.85950    
-43.92000     0.07345     0.11437     0.93710     0.85920    
-43.89000     0.07345     0.11437     0.93710     0.85890    
-43.86000     0.07345     0.11437     0.93710     0.85860    
-43.83000     0.07345     0.11437     0.93710     0.85830    
-43.80000     0.07345     0.11437     0.93710     0.85800    
-43.77000     0.07345     0.11437     0.93710     0.85770    
-43.74000     0.07345     0.11437     0.93710     0.85730    
-43.71000     0.07345     0.11437     0.93710     0.85700    
-43.68000     0.07345     0.11437     0.93710     0.85670    
-43.65000     0.07345     0.11437     0.93710     0.85640    
-43.62000     0.07345     0.11437     0.93710     0.85610    
-43.59000     0.07345     0.11437     0.93710     0.85580    
-43.56000     0.07345     0.11437     0.93710     0.85550    
-43.53000     0.07345     0.11437     0.93710     0.85520    
-43.50000     0.07345     0.11437     0.93710     0.85490    
-43.47000     0.07345     0.11437     0.93710     0.85470    
-43.44000     0.07345     0.11437     0.93710     0.85450    
-43.41000     0.07345     0.11437     0.93710     0.85430    
-43.38000     0.07345     0.11437     0.93710     0.85400    
-43.35000     0.07345     0.11437     0.93710     0.85380    
-43.32000     0.07345     0.11437     0.93710     0.85360    
-43.29000     0.07345     0.11437     0.93710     0.85340    
-43.26000     0.07345     0.11437     0.93710     0.85320    
-43.23000     0.07345     0.11437     0.93710     0.85290    
-43.20000     0.07345     0.11437     0.93710     0.85270    
-43.17000     0.07345     0.11437     0.93710     0.85260    
-43.14000     0.07345     0.11437     0.93710     0.85240    
-43.11000     0.07345     0.11437     0.93710     0.85240    
-43.08000     0.07345     0.11437     0.93710     0.85240    
-43.05000     0.07345     0.11437     0.93710     0.85260    
-43.02000     0.07345     0.11437     0.93710     0.85280    
-42.99000     0.07345     0.11437     0.93710     0.85300    
-42.96000     0.07345     0.11437     0.93710     0.85330    
-42.93000     0.07345     0.11437     0.93710     0.85350    
-42.90000     0.07345     0.11437     0.93710     0.85370    
-42.87000     0.07345     0.11437     0.93710     0.85370    
-42.84000     0.07345     0.11437     0.93710     0.85350    
-42.81000     0.07345     0.11437     0.93710     0.85320    
-42.78000     0.07345     0.11437     0.93710     0.85260    
-42.75000     0.07345     0.11437     0.93710     0.85170    
-42.72000     0.07345     0.11437     0.93710     0.85070    
-42.69000     0.07345     0.11437     0.93710     0.84940    
-42.66000     0.07345     0.11437     0.93710     0.84800    
-42.63000     0.07345     0.11437     0.93710     0.84640    
-42.60000     0.07345     0.11437     0.93710     0.84460    
-42.57000     0.07345     0.11437     0.93710     0.84270    
-42.54000     0.07345     0.11437     0.93710     0.84070    
-42.51000     0.07345     0.11437     0.93710     0.83840    
-42.48000     0.07345     0.11437     0.93710     0.83590    
-42.45000     0.07345     0.11437     0.93710     0.83320    
-42.42000     0.07345     0.11437     0.93710     0.83020    
-42.39000     0.07345     0.11437     0.93710     0.82710    
-42.36000     0.07345     0.11437     0.93710     0.82380    
-42.33000     0.07345     0.11437     0.93710     0.82040    
-42.30000     0.07345     0.11437     0.93710     0.81710    
-42.27000     0.07345     0.11437     0.93710     0.81390    
-42.24000     0.07345     0.11437     0.93710     0.81110    
-42.21000     0.07345     0.11437     0.93710     0.80860    
-42.18000     0.07345     0.11437     0.93710     0.80660    
-42.15000     0.07345     0.11437     0.93710     0.80510    
-42.12000     0.07345     0.11437     0.93710     0.80400    
-42.09000     0.07345     0.11437     0.93710     0.80350    
-42.06000     0.07345     0.11437     0.93710     0.80330    
-42.03000     0.07345     0.11437     0.93710     0.80350    
-42.00000     0.07345     0.11437     0.93710     0.80380    
-41.97000     0.07345     0.11437     0.93710     0.80440    
-41.94000     0.07345     0.11437     0.93710     0.80510    
-41.91000     0.07345     0.11437     0.93710     0.80580    
-41.88000     0.07345     0.11437     0.93710     0.80660    
-41.85000     0.07345     0.11437     0.93710     0.80750    
-41.82000     0.07345     0.11437     0.93710     0.80850    
-41.79000     0.07345     0.11437     0.93710     0.80970    
-41.76000     0.07345     0.11437     0.93710     0.81100    
-41.73000     0.07345     0.11437     0.93710     0.81250    
-41.70000     0.07345     0.11437     0.93710     0.81410    
-41.67000     0.07345     0.11437     0.93710     0.81580    
-41.64000     0.07345     0.11437     0.93710     0.81750    
-41.61000     0.07345     0.11437     0.93710     0.81910    
-41.58000     0.07345     0.11437     0.93710     0.82060    
-41.55000     0.07345     0.11437     0.93710     0.82170    
-41.52000     0.07345     0.11437     0.93710     0.82260    
-41.49000     0.07345     0.11437     0.93710     0.82300    
-41.46000     0.07345     0.11437     0.93710     0.82300    
-41.43000     0.07345     0.11437     0.93710     0.82250    
-41.40000     0.07345     0.11437     0.93710     0.82160    
-41.37000     0.07345     0.11437     0.93710     0.82040    
-41.34000     0.07345     0.11437     0.93710     0.81890    
-41.31000     0.07345     0.11437     0.93710     0.81720    
-41.28000     0.07345     0.11437     0.93710     0.81550    
-41.25000     0.07345     0.11437     0.93710     0.81380    
-41.22000     0.07345     0.11437     0.93710     0.81220    
-41.19000     0.07345     0.11437     0.93710     0.81080    
-41.16000     0.07345     0.11437     0.93710     0.80960    
-41.13000     0.07345     0.11437     0.93710     0.80860    
-41.10000     0.07345     0.11437     0.93710     0.80790    
-41.07000     0.07345     0.11437     0.93710     0.80750    
-41.04000     0.07345     0.11437     0.93710     0.80740    
-41.01000     0.07345     0.11437     0.93710     0.80750    
-40.98000     0.07345     0.11437     0.93710     0.80790    
-40.95000     0.07345     0.11437     0.93710     0.80860    
-40.92000     0.07345     0.11437     0.93710     0.80960    
-40.89000     0.07345     0.11437     0.93710     0.81100    
-40.86000     0.07345     0.11437     0.93710     0.81270    
-40.83000     0.07345     0.11437     0.93710     0.81480    
-40.80000     0.07345     0.11437     0.93710     0.81730    
-40.77000     0.07345     0.11437     0.93710     0.82010    
-40.74000     0.07345     0.11437     0.93710     0.82330    
-40.71000     0.07345     0.11437     0.93710     0.82680    
-40.68000     0.07345     0.11437     0.93710     0.83050    
-40.65000     0.07345     0.11437     0.93710     0.83440    
-40.62000     0.07345     0.11437     0.93710     0.83820    
-40.59000     0.07345     0.11437     0.93710     0.84200    
-40.56000     0.07345     0.11437     0.93710     0.84550    
-40.53000     0.07345     0.11437     0.93710     0.84880    
-40.50000     0.07345     0.11437     0.93710     0.85180    
-40.47000     0.07345     0.11437     0.93710     0.85430    
-40.44000     0.07345     0.11437     0.93710     0.85650    
-40.41000     0.07345     0.11437     0.93710     0.85830    
-40.38000     0.07345     0.11437     0.93710     0.85960    
-40.35000     0.07345     0.11437     0.93710     0.86060    
-40.32000     0.07345     0.11437     0.93710     0.86130    
-40.29000     0.07345     0.11437     0.93710     0.86170    
-40.26000     0.07345     0.11437     0.93710     0.86180    
-40.23000     0.07345     0.11437     0.93710     0.86170    
-40.20000     0.07345     0.11437     0.93710     0.86130    
-40.17000     0.07345     0.11437     0.93710     0.86090    
-40.14000     0.07345     0.11437     0.93710     0.86030    
-40.11000     0.07345     0.11437     0.93710     0.85960    
-40.08000     0.07345     0.11437     0.93710     0.85890    
-40.05000     0.07345     0.11437     0.93710     0.85820    
-40.02000     0.07345     0.11437     0.93710     0.85750    
-39.99000     0.07345     0.11437     0.93710     0.85690    
-39.96000     0.07345     0.11437     0.93710     0.85630    
-39.93000     0.07345     0.11437     0.93710     0.85580    
-39.90000     0.07345     0.11437     0.93710     0.85540    
-39.87000     0.07345     0.11437     0.93710     0.85510    
-39.84000     0.07345     0.11437     0.93710     0.85470    
-39.81000     0.07345     0.11437     0.93710     0.85430    
-39.78000     0.07345     0.11437     0.93710     0.85380    
-39.75000     0.07345     0.11437     0.93710     0.85320    
-39.72000     0.07345     0.11437     0.93710     0.85240    
-39.69000     0.07345     0.11437     0.93710     0.85140    
-39.66000     0.07345     0.11437     0.93710     0.85010    
-39.63000     0.07345     0.11437     0.93710     0.84870    
-39.60000     0.07345     0.11437     0.93710     0.84710    
-39.57000     0.07345     0.11437     0.93710     0.84530    
-39.54000     0.07345     0.11437     0.93710     0.84330    
-39.51000     0.07345     0.11437     0.93710     0.84120    
-39.48000     0.07345     0.11437     0.93710     0.83900    
-39.45000     0.07345     0.11437     0.93710     0.83660    
-39.42000     0.07345     0.11437     0.93710     0.83410    
-39.39000     0.07345     0.11437     0.93710     0.83130    
-39.36000     0.07345     0.11437     0.93710     0.82840    
-39.33000     0.07345     0.11437     0.93710     0.82530    
-39.30000     0.07345     0.11437     0.93710     0.82200    
-39.27000     0.07345     0.11437     0.93710     0.81870    
-39.24000     0.07345     0.11437     0.93710     0.81530    
-39.21000     0.07345     0.11437     0.93710     0.81200    
-39.18000     0.07345     0.11437     0.93710     0.80890    
-39.15000     0.07345     0.11437     0.93710     0.80620    
-39.12000     0.07345     0.11437     0.93710     0.80390    
-39.09000     0.07345     0.11437     0.93710     0.80220    
-39.06000     0.07345     0.11437     0.93710     0.80100    
-39.03000     0.07345     0.11437     0.93710     0.80030    
-39.00000     0.07345     0.11437     0.93710     0.80020    
-38.97000     0.07345     0.11437     0.93710     0.80060    
-38.94000     0.07345     0.11437     0.93710     0.80140    
-38.91000     0.07345     0.11437     0.93710     0.80240    
-38.88000     0.07345     0.11437     0.93710     0.80380    
-38.85000     0.07345     0.11437     0.93710     0.80530    
-38.82000     0.07345     0.11437     0.93710     0.80690    
-38.79000     0.07345     0.11437     0.93710     0.80870    
-38.76000     0.07345     0.11437     0.93710     0.81060    
-38.73000     0.07345     0.11437     0.93710     0.81250    
-38.70000     0.07345     0.11437     0.93710     0.81460    
-38.67000     0.07345     0.11437     0.93710     0.81680    
-38.64000     0.07345     0.11437     0.93710     0.81900    
-38.61000     0.07345     0.11437     0.93710     0.82130    
-38.58000     0.07345     0.11437     0.93710     0.82350    
-38.55000     0.07345     0.11437     0.93710     0.82560    
-38.52000     0.07345     0.11437     0.93710     0.82750    
-38.49000     0.07345     0.11437     0.93710     0.82920    
-38.46000     0.07345     0.11437     0.93710     0.83060    
-38.43000     0.07345     0.11437     0.93710     0.83160    
-38.40000     0.07345     0.11437     0.93710     0.83230    
-38.37000     0.07345     0.11437     0.93710     0.83260    
-38.34000     0.07345     0.11437     0.93710     0.83260    
-38.31000     0.07345     0.11437     0.93710     0.83210    
-38.28000     0.07345     0.11437     0.93710     0.83140    
-38.25000     0.07345     0.11437     0.93710     0.83020    
-38.22000     0.07345     0.11437     0.93710     0.82880    
-38.19000     0.07345     0.11437     0.93710     0.82720    
-38.16000     0.07345     0.11437     0.93710     0.82530    
-38.13000     0.07345     0.11437     0.93710     0.82330    
-38.10000     0.07345     0.11437     0.93710     0.82120    
-38.07000     0.07345     0.11437     0.93710     0.81910    
-38.04000     0.07345     0.11437     0.93710     0.81720    
-38.01000     0.07345     0.11437     0.93710     0.81540    
-37.98000     0.07345     0.11437     0.93710     0.81380    
-37.95000     0.07345     0.11437     0.93710     0.81250    
-37.92000     0.07345     0.11437     0.93710     0.81150    
-37.89000     0.07345     0.11437     0.93710     0.81070    
-37.86000     0.07345     0.11437     0.93710     0.81030    
-37.83000     0.07345     0.11437     0.93710     0.81010    
-37.80000     0.07345     0.11437     0.93710     0.81010    
-37.77000     0.07345     0.11437     0.93710     0.81030    
-37.74000     0.07345     0.11437     0.93710     0.81080    
-37.71000     0.07345     0.11437     0.93710     0.81140    
-37.68000     0.07345     0.11437     0.93710     0.81220    
-37.65000     0.07345     0.11437     0.93710     0.81330    
-37.62000     0.07345     0.11437     0.93710     0.81460    
-37.59000     0.07345     0.11437     0.93710     0.81620    
-37.56000     0.07345     0.11437     0.93710     0.81800    
-37.53000     0.07345     0.11437     0.93710     0.82010    
-37.50000     0.07345     0.11437     0.93710     0.82250    
-37.47000     0.07345     0.11437     0.93710     0.82500    
-37.44000     0.07345     0.11437     0.93710     0.82770    
-37.41000     0.07345     0.11437     0.93710     0.83030    
-37.38000     0.07345     0.11437     0.93710     0.83290    
-37.35000     0.07345     0.11437     0.93710     0.83530    
-37.32000     0.07345     0.11437     0.93710     0.83730    
-37.29000     0.07345     0.11437     0.93710     0.83890    
-37.26000     0.07345     0.11437     0.93710     0.84010    
-37.23000     0.07345     0.11437     0.93710     0.84070    
-37.20000     0.07345     0.11437     0.93710     0.84090    
-37.17000     0.07345     0.11437     0.93710     0.84050    
-37.14000     0.07345     0.11437     0.93710     0.83980    
-37.11000     0.07345     0.11437     0.93710     0.83870    
-37.08000     0.07345     0.11437     0.93710     0.83720    
-37.05000     0.07345     0.11437     0.93710     0.83560    
-37.02000     0.07345     0.11437     0.93710     0.83370    
-36.99000     0.07345     0.11437     0.93710     0.83170    
-36.96000     0.07345     0.11437     0.93710     0.82950    
-36.93000     0.07345     0.11437     0.93710     0.82720    
-36.90000     0.07345     0.11437     0.93710     0.82480    
-36.87000     0.07345     0.11437     0.93710     0.82210    
-36.84000     0.07345     0.11437     0.93710     0.81940    
-36.81000     0.07345     0.11437     0.93710     0.81640    
-36.78000     0.07345     0.11437     0.93710     0.81340    
-36.75000     0.07345     0.11437     0.93710     0.81030    
-36.72000     0.07345     0.11437     0.93710     0.80720    
-36.69000     0.07345     0.11437     0.93710     0.80420    
-36.66000     0.07345     0.11437     0.93710     0.80140    
-36.63000     0.07345     0.11437     0.93710     0.79880    
-36.60000     0.07345     0.11437     0.93710     0.79660    
-36.57000     0.07345     0.11437     0.93710     0.79470    
-36.54000     0.07345     0.11437     0.93710     0.79320    
-36.51000     0.07345     0.11437     0.93710     0.79200    
-36.48000     0.07345     0.11437     0.93710     0.79120    
-36.45000     0.07345     0.11437     0.93710     0.79080    
-36.42000     0.07345     0.11437     0.93710     0.79070    
-36.39000     0.07345     0.11437     0.93710     0.79090    
-36.36000     0.07345     0.11437     0.93710     0.79140    
-36.33000     0.07345     0.11437     0.93710     0.79230    
-36.30000     0.07345     0.11437     0.93710     0.79350    
-36.27000     0.07345     0.11437     0.93710     0.79510    
-36.24000     0.07345     0.11437     0.93710     0.79720    
-36.21000     0.07345     0.11437     0.93710     0.79980    
-36.18000     0.07345     0.11437     0.93710     0.80280    
-36.15000     0.07345     0.11437     0.93710     0.80630    
-36.12000     0.07345     0.11437     0.93710     0.81020    
-36.09000     0.07345     0.11437     0.93710     0.81440    
-36.06000     0.07345     0.11437     0.93710     0.81880    
-36.03000     0.07345     0.11437     0.93710     0.82320    
-36.00000     0.07345     0.11437     0.93710     0.82750    
-35.97000     0.07345     0.11437     0.93710     0.83160    
-35.94000     0.07345     0.11437     0.93710     0.83510    
-35.91000     0.07345     0.11437     0.93710     0.83810    
-35.88000     0.07345     0.11437     0.93710     0.84030    
-35.85000     0.07345     0.11437     0.93710     0.84180    
-35.82000     0.07345     0.11437     0.93710     0.84250    
-35.79000     0.07345     0.11437     0.93710     0.84250    
-35.76000     0.07345     0.11437     0.93710     0.84170    
-35.73000     0.07345     0.11437     0.93710     0.84040    
-35.70000     0.07345     0.11437     0.93710     0.83850    
-35.67000     0.07345     0.11437     0.93710     0.83620    
-35.64000     0.07345     0.11437     0.93710     0.83350    
-35.61000     0.07345     0.11437     0.93710     0.83030    
-35.58000     0.07345     0.11437     0.93710     0.82620    
-35.55000     0.07345     0.11437     0.93710     0.82070    
-35.52000     0.07345     0.11437     0.93710     0.81290    
-35.49000     0.07345     0.11437     0.93710     0.80150    
-35.46000     0.07345     0.11437     0.93710     0.78480    
-35.43000     0.07345     0.11437     0.93710     0.76070    
-35.40000     0.07345     0.11437     0.93710     0.72700    
-35.37000     0.07345     0.11437     0.93710     0.68190    
-35.34000     0.07345     0.11437     0.93710     0.62440    
-35.31000     0.07345     0.11437     0.93710     0.55490    
-35.28000     0.07345     0.11437     0.93710     0.47610    
-35.25000     0.07345     0.11437     0.93710     0.39240    
-35.22000     0.07345     0.11437     0.93710     0.30960    
-35.19000     0.07345     0.11437     0.93710     0.23350    
-35.16000     0.07345     0.11437     0.93710     0.16860    
-35.13000     0.07345     0.11437     0.93710     0.11680    
-35.10000     0.07345     0.11437     0.93710     0.07826    
-35.07000     0.07345     0.11437     0.93710     0.05107    
-35.04000     0.07345     0.11437     0.93710     0.03276    
-35.01000     0.07345     0.11437     0.93710     0.02083    
-34.98000     0.07345     0.11437     0.93710     0.01323    
-34.95000     0.07345     0.11437     0.93710     0.00842    
-34.92000     0.07345     0.11437     0.93710     0.00538    
-34.89000     0.07345     0.11437     0.93710     0.00344    
-34.86000     0.07345     0.11437     0.93710     0.00218    
-34.83000     0.07345     0.11437     0.93710     0.00136    
-34.80000     0.07345     0.11437     0.93710     0.00083    
-34.77000     0.07345     0.11437     0.93710     0.00050    
-34.74000     0.07345     0.11437     0.93710     0.00029    
-34.71000     0.07345     0.11437     0.93710     0.00016    
-34.68000     0.07345     0.11437     0.93710     0.00009    
-34.65000     0.07345     0.11437     0.93710     0.00005    
-34.62000     0.07345     0.11437     0.93710     0.00003    
-34.59000     0.07345     0.11437     0.93710     0.00002    
-34.56000     0.07345     0.11437     0.93710     0.00001    
-34.53000     0.07345     0.11437     0.93710     0.00001    
-34.50000     0.07345     0.11437     0.93710     0.00000    
-34.47000     0.07345     0.11437     0.93710     0.00000    
-34.44000     0.07345     0.11437     0.93710     0.00000    
-34.41000     0.07345     0.11437     0.93710     0.00000    
-34.38000     0.07345     0.11437     0.93710     0.00000    
-34.35000     0.07345     0.11437     0.93710     0.00000    
-34.32000     0.07345     0.11437     0.93710     0.00000    
-34.29000     0.07345     0.11437     0.93710     0.00000    
-34.26000     0.07345     0.11437     0.93710     0.00000    
-34.23000     0.07345     0.11437     0.93710     0.00000    
-34.20000     0.07345     0.11437     0.93710     0.00000    
-34.17000     0.07345     0.11437     0.93710     0.00001    
-34.14000     0.07345     0.11437     0.93710     0.00001    
-34.11000     0.07345     0.11437     0.93710     0.00002    
-34.08000     0.07345     0.11437     0.93710     0.00003    
-34.05000     0.07345     0.11437     0.93710     0.00006    
-34.02000     0.07345     0.11437     0.93710     0.00013    
-33.99000     0.07345     0.11437     0.93710     0.00030    
-33.96000     0.07345     0.11437     0.93710     0.00069    
-33.93000     0.07345     0.11437     0.93710     0.00162    
-33.90000     0.07345     0.11437     0.93710     0.00377    
-33.87000     0.07345     0.11437     0.93710     0.00851    
-33.84000     0.07345     0.11437     0.93710     0.01831    
-33.81000     0.07345     0.11437     0.93710     0.03688    
-33.78000     0.07345     0.11437     0.93710     0.06885    
-33.75000     0.07345     0.11437     0.93710     0.11840    
-33.72000     0.07345     0.11437     0.93710     0.18710    
-33.69000     0.07345     0.11437     0.93710     0.27290    
-33.66000     0.07345     0.11437     0.93710     0.36950    
-33.63000     0.07345     0.11437     0.93710     0.46820    
-33.60000     0.07345     0.11437     0.93710     0.56070    
-33.57000     0.07345     0.11437     0.93710     0.64100    
-33.54000     0.07345     0.11437     0.93710     0.70620    
-33.51000     0.07345     0.11437     0.93710     0.75600    
-33.48000     0.07345     0.11437     0.93710     0.79230    
-33.45000     0.07345     0.11437     0.93710     0.81760    
-33.42000     0.07345     0.11437     0.93710     0.83460    
-33.39000     0.07345     0.11437     0.93710     0.84570    
-33.36000     0.07345     0.11437     0.93710     0.85270    
-33.33000     0.07345     0.11437     0.93710     0.85710    
-33.30000     0.07345     0.11437     0.93710     0.85970    
-33.27000     0.07345     0.11437     0.93710     0.86130    
-33.24000     0.07345     0.11437     0.93710     0.86220    
-33.21000     0.07345     0.11437     0.93710     0.86280    
-33.18000     0.07345     0.11437     0.93710     0.86310    
-33.15000     0.07345     0.11437     0.93710     0.86320    
-33.12000     0.07345     0.11437     0.93710     0.86330    
-33.09000     0.07345     0.11437     0.93710     0.86330    
-33.06000     0.07345     0.11437     0.93710     0.86320    
-33.03000     0.07345     0.11437     0.93710     0.86310    
-33.00000     0.07345     0.11437     0.93710     0.86300    
-32.97000     0.07345     0.11437     0.93710     0.86290    
-32.94000     0.07345     0.11437     0.93710     0.86270    
-32.91000     0.07345     0.11437     0.93710     0.86250    
-32.88000     0.07345     0.11437     0.93710     0.86230    
-32.85000     0.07345     0.11437     0.93710     0.86200    
-32.82000     0.07345     0.11437     0.93710     0.86170    
-32.79000     0.07345     0.11437     0.93710     0.86120    
-32.76000     0.07345     0.11437     0.93710     0.86050    
-32.73000     0.07345     0.11437     0.93710     0.85960    
-32.70000     0.07345     0.11437     0.93710     0.85820    
-32.67000     0.07345     0.11437     0.93710     0.85600    
-32.64000     0.07345     0.11437     0.93710     0.85290    
-32.61000     0.07345     0.11437     0.93710     0.84830    
-32.58000     0.07345     0.11437     0.93710     0.84160    
-32.55000     0.07345     0.11437     0.93710     0.83220    
-32.52000     0.07345     0.11437     0.93710     0.81920    
-32.49000     0.07345     0.11437     0.93710     0.80160    
-32.46000     0.07345     0.11437     0.93710     0.77850    
-32.43000     0.07345     0.11437     0.93710     0.74920    
-32.40000     0.07345     0.11437     0.93710     0.71320    
-32.37000     0.07345     0.11437     0.93710     0.67080    
-32.34000     0.07345     0.11437     0.93710     0.62260    
-32.31000     0.07345     0.11437     0.93710     0.57020    
-32.28000     0.07345     0.11437     0.93710     0.51560    
-32.25000     0.07345     0.11437     0.93710     0.46120    
-32.22000     0.07345     0.11437     0.93710     0.40920    
-32.19000     0.07345     0.11437     0.93710     0.36170    
-32.16000     0.07345     0.11437     0.93710     0.31980    
-32.13000     0.07345     0.11437     0.93710     0.28430    
-32.10000     0.07345     0.11437     0.93710     0.25520    
-32.07000     0.07345     0.11437     0.93710     0.23190    
-32.04000     0.07345     0.11437     0.93710     0.21370    
-32.01000     0.07345     0.11437     0.93710     0.19930    
-31.98000     0.07345     0.11437     0.93710     0.18750    
-31.95000     0.07345     0.11437     0.93710     0.17690    
-31.92000     0.07345     0.11437     0.93710     0.16610    
-31.89000     0.07345     0.11437     0.93710     0.15390    
-31.86000     0.07345     0.11437     0.93710     0.13960    
-31.83000     0.07345     0.11437     0.93710     0.12310    
-31.80000     0.07345     0.11437     0.93710     0.10500    
-31.77000     0.07345     0.11437     0.93710     0.08640    
-31.74000     0.07345     0.11437     0.93710     0.06851    
-31.71000     0.07345     0.11437     0.93710     0.05242    
-31.68000     0.07345     0.11437     0.93710     0.03878    
-31.65000     0.07345     0.11437     0.93710     0.02779    
-31.62000     0.07345     0.11437     0.93710     0.01930    
-31.59000     0.07345     0.11437     0.93710     0.01298    
-31.56000     0.07345     0.11437     0.93710     0.00844    
-31.53000     0.07345     0.11437     0.93710     0.00528    
-31.50000     0.07345     0.11437     0.93710     0.00318    
-31.47000     0.07345     0.11437     0.93710     0.00184    
-31.44000     0.07345     0.11437     0.93710     0.00103    
-31.41000     0.07345     0.11437     0.93710     0.00056    
-31.38000     0.07345     0.11437     0.93710     0.00030    
-31.35000     0.07345     0.11437     0.93710     0.00016    
-31.32000     0.07345     0.11437     0.93710     0.00009    
-31.29000     0.07345     0.11437     0.93710     0.00005    
-31.26000     0.07345     0.11437     0.93710     0.00003    
-31.23000     0.07345     0.11437     0.93710     0.00002    
-31.20000     0.07345     0.11437     0.93710     0.00002    
-31.17000     0.07345     0.11437     0.93710     0.00001    
-31.14000     0.07345     0.11437     0.93710     0.00001    
-31.11000     0.07345     0.11437     0.93710     0.00001    
-31.08000     0.07345     0.11437     0.93710     0.00001    
-31.05000     0.07345     0.11437     0.93710     0.00002    
-31.02000     0.07345     0.11437     0.93710     0.00002    
-30.99000     0.07345     0.11437     0.93710     0.00002    
-30.96000     0.07345     0.11437     0.93710     0.00003    
-30.93000     0.07345     0.11437     0.93710     0.00005    
-30.90000     0.07345     0.11437     0.93710     0.00007    
-30.87000     0.07345     0.11437     0.93710     0.00011    
-30.84000     0.07345     0.11437     0.93710     0.00017    
-30.81000     0.07345     0.11437     0.93710     0.00029    
-30.78000     0.07345     0.11437     0.93710     0.00052    
-30.75000     0.07345     0.11437     0.93710     0.00096    
-30.72000     0.07345     0.11437     0.93710     0.00184    
-30.69000     0.07345     0.11437     0.93710     0.00362    
-30.66000     0.07345     0.11437     0.93710     0.00713    
-30.63000     0.07345     0.11437     0.93710     0.01389    
-30.60000     0.07345     0.11437     0.93710     0.02628    
-30.57000     0.07345     0.11437     0.93710     0.04760    
-30.54000     0.07345     0.11437     0.93710     0.08160    
-30.51000     0.07345     0.11437     0.93710     0.13140    
-30.48000     0.07345     0.11437     0.93710     0.19790    
-30.45000     0.07345     0.11437     0.93710     0.27920    
-30.42000     0.07345     0.11437     0.93710     0.37000    
-30.39000     0.07345     0.11437     0.93710     0.46310    
-30.36000     0.07345     0.11437     0.93710     0.55160    
-30.33000     0.07345     0.11437     0.93710     0.62980    
-30.30000     0.07345     0.11437     0.93710     0.69490    
-30.27000     0.07345     0.11437     0.93710     0.74600    
-30.24000     0.07345     0.11437     0.93710     0.78440    
-30.21000     0.07345     0.11437     0.93710     0.81190    
-30.18000     0.07345     0.11437     0.93710     0.83090    
-30.15000     0.07345     0.11437     0.93710     0.84360    
-30.12000     0.07345     0.11437     0.93710     0.85180    
-30.09000     0.07345     0.11437     0.93710     0.85700    
-30.06000     0.07345     0.11437     0.93710     0.86020    
-30.03000     0.07345     0.11437     0.93710     0.86200    
-30.00000     0.07345     0.11437     0.93710     0.86310    
-29.97000     0.07345     0.11437     0.93710     0.86370    
-29.94000     0.07345     0.11437     0.93710     0.86400    
-29.91000     0.07345     0.11437     0.93710     0.86410    
-29.88000     0.07345     0.11437     0.93710     0.86420    
-29.85000     0.07345     0.11437     0.93710     0.86420    
-29.82000     0.07345     0.11437     0.93710     0.86410    
-29.79000     0.07345     0.11437     0.93710     0.86410    
-29.76000     0.07345     0.11437     0.93710     0.86400    
-29.73000     0.07345     0.11437     0.93710     0.86390    
-29.70000     0.07345     0.11437     0.93710     0.86390    
-29.67000     0.07345     0.11437     0.93710     0.86380    
-29.64000     0.07345     0.11437     0.93710     0.86370    
-29.61000     0.07345     0.11437     0.93710     0.86370    
-29.58000     0.07345     0.11437     0.93710     0.86360    
-29.55000     0.07345     0.11437     0.93710     0.86350    
-29.52000     0.07345     0.11437     0.93710     0.86350    
-29.49000     0.07345     0.11437     0.93710     0.86340    
-29.46000     0.07345     0.11437     0.93710     0.86340    
-29.43000     0.07345     0.11437     0.93710     0.86330    
-29.40000     0.07345     0.11437     0.93710     0.86330    
-29.37000     0.07345     0.11437     0.93710     0.86320    
-29.34000     0.07345     0.11437     0.93710     0.86310    
-29.31000     0.07345     0.11437     0.93710     0.86310    
-29.28000     0.07345     0.11437     0.93710     0.86300    
-29.25000     0.07345     0.11437     0.93710     0.86290    
-29.22000     0.07345     0.11437     0.93710     0.86290    
-29.19000     0.07345     0.11437     0.93710     0.86280    
-29.16000     0.07345     0.11437     0.93710     0.86280    
-29.13000     0.07345     0.11437     0.93710     0.86280    
-29.10000     0.07345     0.11437     0.93710     0.86280    
-29.07000     0.07345     0.11437     0.93710     0.86280    
-29.04000     0.07345     0.11437     0.93710     0.86280    
-29.01000     0.07345     0.11437     0.93710     0.86290    
-28.98000     0.07345     0.11437     0.93710     0.86300    
-28.95000     0.07345     0.11437     0.93710     0.86310    
-28.92000     0.07345     0.11437     0.93710     0.86320    
-28.89000     0.07345     0.11437     0.93710     0.86340    
-28.86000     0.07345     0.11437     0.93710     0.86350    
-28.83000     0.07345     0.11437     0.93710     0.86370    
-28.80000     0.07345     0.11437     0.93710     0.86380    
-28.77000     0.07345     0.11437     0.93710     0.86390    
-28.74000     0.07345     0.11437     0.93710     0.86410    
-28.71000     0.07345     0.11437     0.93710     0.86420    
-28.68000     0.07345     0.11437     0.93710     0.86430    
-28.65000     0.07345     0.11437     0.93710     0.86440    
-28.62000     0.07345     0.11437     0.93710     0.86450    
-28.59000     0.07345     0.11437     0.93710     0.86460    
-28.56000     0.07345     0.11437     0.93710     0.86460    
-28.53000     0.07345     0.11437     0.93710     0.86470    
-28.50000     0.07345     0.11437     0.93710     0.86470    
-28.47000     0.07345     0.11437     0.93710     0.86480    
-28.44000     0.07345     0.11437     0.93710     0.86480    
-28.41000     0.07345     0.11437     0.93710     0.86480    
-28.38000     0.07345     0.11437     0.93710     0.86480    
-28.35000     0.07345     0.11437     0.93710     0.86480    
-28.32000     0.07345     0.11437     0.93710     0.86480    
-28.29000     0.07345     0.11437     0.93710     0.86480    
-28.26000     0.07345     0.11437     0.93710     0.86480    
-28.23000     0.07345     0.11437     0.93710     0.86480    
-28.20000     0.07345     0.11437     0.93710     0.86480    
-28.17000     0.07345     0.11437     0.93710     0.86480    
-28.14000     0.07345     0.11437     0.93710     0.86480    
-28.11000     0.07345     0.11437     0.93710     0.86480    
-28.08000     0.07345     0.11437     0.93710     0.86480    
-28.05000     0.07345     0.11437     0.93710     0.86480    
-28.02000     0.07345     0.11437     0.93710     0.86480    
-27.99000     0.07345     0.11437     0.93710     0.86470    
-27.96000     0.07345     0.11437     0.93710     0.86470    
-27.93000     0.07345     0.11437     0.93710     0.86470    
-27.90000     0.07345     0.11437     0.93710     0.86470    
-27.87000     0.07345     0.11437     0.93710     0.86470    
-27.84000     0.07345     0.11437     0.93710     0.86470    
-27.81000     0.07345     0.11437     0.93710     0.86470    
-27.78000     0.07345     0.11437     0.93710     0.86460    
-27.75000     0.07345     0.11437     0.93710     0.86460    
-27.72000     0.07345     0.11437     0.93710     0.86460    
-27.69000     0.07345     0.11437     0.93710     0.86460    
-27.66000     0.07345     0.11437     0.93710     0.86460    
-27.63000     0.07345     0.11437     0.93710     0.86460    
-27.60000     0.07345     0.11437     0.93710     0.86450    
-27.57000     0.07345     0.11437     0.93710     0.86450    
-27.54000     0.07345     0.11437     0.93710     0.86450    
-27.51000     0.07345     0.11437     0.93710     0.86450    
-27.48000     0.07345     0.11437     0.93710     0.86450    
-27.45000     0.07345     0.11437     0.93710     0.86450    
-27.42000     0.07345     0.11437     0.93710     0.86450    
-27.39000     0.07345     0.11437     0.93710     0.86450    
-27.36000     0.07345     0.11437     0.93710     0.86450    
-27.33000     0.07345     0.11437     0.93710     0.86440    
-27.30000     0.07345     0.11437     0.93710     0.86440    
-27.27000     0.07345     0.11437     0.93710     0.86440    
-27.24000     0.07345     0.11437     0.93710     0.86440    
-27.21000     0.07345     0.11437     0.93710     0.86440    
-27.18000     0.07345     0.11437     0.93710     0.86440    
-27.15000     0.07345     0.11437     0.93710     0.86440    
-27.12000     0.07345     0.11437     0.93710     0.86440    
-27.09000     0.07345     0.11437     0.93710     0.86440    
-27.06000     0.07345     0.11437     0.93710     0.86440    
-27.03000     0.07345     0.11437     0.93710     0.86440    
-27.00000     0.07345     0.11437     0.93710     0.86440    
-26.97000     0.07345     0.11437     0.93710     0.86440    
-26.94000     0.07345     0.11437     0.93710     0.86440    
-26.91000     0.07345     0.11437     0.93710     0.86440    
-26.88000     0.07345     0.11437     0.93710     0.86430    
-26.85000     0.07345     0.11437     0.93710     0.86430    
-26.82000     0.07345     0.11437     0.93710     0.86430    
-26.79000     0.07345     0.11437     0.93710     0.86430    
-26.76000     0.07345     0.11437     0.93710     0.86430    
-26.73000     0.07345     0.11437     0.93710     0.86430    
-26.70000     0.07345     0.11437     0.93710     0.86430    
-26.67000     0.07345     0.11437     0.93710     0.86430    
-26.64000     0.07345     0.11437     0.93710     0.86430    
-26.61000     0.07345     0.11437     0.93710     0.86430    
-26.58000     0.07345     0.11437     0.93710     0.86430    
-26.55000     0.07345     0.11437     0.93710     0.86430    
-26.52000     0.07345     0.11437     0.93710     0.86430    
-26.49000     0.07345     0.11437     0.93710     0.86440    
-26.46000     0.07345     0.11437     0.93710     0.86440    
-26.43000     0.07345     0.11437     0.93710     0.86440    
-26.40000     0.07345     0.11437     0.93710     0.86440    
-26.37000     0.07345     0.11437     0.93710     0.86450    
-26.34000     0.07345     0.11437     0.93710     0.86450    
-26.31000     0.07345     0.11437     0.93710     0.86450    
-26.28000     0.07345     0.11437     0.93710     0.86460    
-26.25000     0.07345     0.11437     0.93710     0.86460    
-26.22000     0.07345     0.11437     0.93710     0.86460    
-26.19000     0.07345     0.11437     0.93710     0.86470    
-26.16000     0.07345     0.11437     0.93710     0.86470    
-26.13000     0.07345     0.11437     0.93710     0.86470    
-26.10000     0.07345     0.11437     0.93710     0.86480    
-26.07000     0.07345     0.11437     0.93710     0.86480    
-26.04000     0.07345     0.11437     0.93710     0.86480    
-26.01000     0.07345     0.11437     0.93710     0.86480    
-25.98000     0.07345     0.11437     0.93710     0.86480    
-25.95000     0.07345     0.11437     0.93710     0.86480    
-25.92000     0.07345     0.11437     0.93710     0.86480    
-25.89000     0.07345     0.11437     0.93710     0.86490    
-25.86000     0.07345     0.11437     0.93710     0.86490    
-25.83000     0.07345     0.11437     0.93710     0.86490    
-25.80000     0.07345     0.11437     0.93710     0.86490    
-25.77000     0.07345     0.11437     0.93710     0.86490    
-25.74000     0.07345     0.11437     0.93710     0.86490    
-25.71000     0.07345     0.11437     0.93710     0.86490    
-25.68000     0.07345     0.11437     0.93710     0.86490    
-25.65000     0.07345     0.11437     0.93710     0.86490    
-25.62000     0.07345     0.11437     0.93710     0.86490    
-25.59000     0.07345     0.11437     0.93710     0.86490    
-25.56000     0.07345     0.11437     0.93710     0.86490    
-25.53000     0.07345     0.11437     0.93710     0.86490    
-25.50000     0.07345     0.11437     0.93710     0.86490    
-25.47000     0.07345     0.11437     0.93710     0.86490    
-25.44000     0.07345     0.11437     0.93710     0.86490    
-25.41000     0.07345     0.11437     0.93710     0.86490    
-25.38000     0.07345     0.11437     0.93710     0.86490    
-25.35000     0.07345     0.11437     0.93710     0.86490    
-25.32000     0.07345     0.11437     0.93710     0.86490    
-25.29000     0.07345     0.11437     0.93710     0.86490    
-25.26000     0.07345     0.11437     0.93710     0.86490    
-25.23000     0.07345     0.11437     0.93710     0.86490    
-25.20000     0.07345     0.11437     0.93710     0.86490    
-25.17000     0.07345     0.11437     0.93710     0.86490    
-25.14000     0.07345     0.11437     0.93710     0.86490    
-25.11000     0.07345     0.11437     0.93710     0.86490    
-25.08000     0.07345     0.11437     0.93710     0.86490    
-25.05000     0.07345     0.11437     0.93710     0.86490    
-25.02000     0.07345     0.11437     0.93710     0.86490    
-24.99000     0.07345     0.11437     0.93710     0.86490    
-24.96000     0.07345     0.11437     0.93710     0.86490    
-24.93000     0.07345     0.11437     0.93710     0.86490    
-24.90000     0.07345     0.11437     0.93710     0.86490    
-24.87000     0.07345     0.11437     0.93710     0.86490    
-24.84000     0.07345     0.11437     0.93710     0.86490    
-24.81000     0.07345     0.11437     0.93710     0.86490    
-24.78000     0.07345     0.11437     0.93710     0.86490    
-24.75000     0.07345     0.11437     0.93710     0.86490    
-24.72000     0.07345     0.11437     0.93710     0.86490    
-24.69000     0.07345     0.11437     0.93710     0.86490    
-24.66000     0.07345     0.11437     0.93710     0.86490    
-24.63000     0.07345     0.11437     0.93710     0.86490    
-24.60000     0.07345     0.11437     0.93710     0.86490    
-24.57000     0.07345     0.11437     0.93710     0.86490    
-24.54000     0.07345     0.11437     0.93710     0.86490    
-24.51000     0.07345     0.11437     0.93710     0.86490    
-24.48000     0.07345     0.11437     0.93710     0.86490    
-24.45000     0.07345     0.11437     0.93710     0.86490    
-24.42000     0.07345     0.11437     0.93710     0.86490    
-24.39000     0.07345     0.11437     0.93710     0.86490    
-24.36000     0.07345     0.11437     0.93710     0.86490    
-24.33000     0.07345     0.11437     0.93710     0.86490    
-24.30000     0.07345     0.11437     0.93710     0.86490    
-24.27000     0.07345     0.11437     0.93710     0.86490    
-24.24000     0.07345     0.11437     0.93710     0.86490    
-24.21000     0.07345     0.11437     0.93710     0.86490    
-24.18000     0.07345     0.11437     0.93710     0.86490    
-24.15000     0.07345     0.11437     0.93710     0.86490    
-24.12000     0.07345     0.11437     0.93710     0.86490    
-24.09000     0.07345     0.11437     0.93710     0.86490    
-24.06000     0.07345     0.11437     0.93710     0.86490    
-24.03000     0.07345     0.11437     0.93710     0.86490    
-24.00000     0.07345     0.11437     0.93710     0.86490    
-23.97000     0.07345     0.11437     0.93710     0.86490    
-23.94000     0.07345     0.11437     0.93710     0.86490    
-23.91000     0.07345     0.11437     0.93710     0.86490    
-23.88000     0.07345     0.11437     0.93710     0.86490    
-23.85000     0.07345     0.11437     0.93710     0.86490    
-23.82000     0.07345     0.11437     0.93710     0.86490    
-23.79000     0.07345     0.11437     0.93710     0.86490    
-23.76000     0.07345     0.11437     0.93710     0.86490    
-23.73000     0.07345     0.11437     0.93710     0.86490    
-23.70000     0.07345     0.11437     0.93710     0.86490    
-23.67000     0.07345     0.11437     0.93710     0.86490    
-23.64000     0.07345     0.11437     0.93710     0.86490    
-23.61000     0.07345     0.11437     0.93710     0.86490    
-23.58000     0.07345     0.11437     0.93710     0.86490    
-23.55000     0.07345     0.11437     0.93710     0.86490    
-23.52000     0.07345     0.11437     0.93710     0.86490    
-23.49000     0.07345     0.11437     0.93710     0.86490    
-23.46000     0.07345     0.11437     0.93710     0.86490    
-23.43000     0.07345     0.11437     0.93710     0.86490    
-23.40000     0.07345     0.11437     0.93710     0.86490    
-23.37000     0.07345     0.11437     0.93710     0.86490    
-23.34000     0.07345     0.11437     0.93710     0.86490    
-23.31000     0.07345     0.11437     0.93710     0.86490    
-23.28000     0.07345     0.11437     0.93710     0.86490    
-23.25000     0.07345     0.11437     0.93710     0.86490    
-23.22000     0.07345     0.11437     0.93710     0.86490    
-23.19000     0.07345     0.11437     0.93710     0.86490    
-23.16000     0.07345     0.11437     0.93710     0.86490    
-23.13000     0.07345     0.11437     0.93710     0.86490    
-23.10000     0.07345     0.11437     0.93710     0.86490    
-23.07000     0.07345     0.11437     0.93710     0.86490    
-23.04000     0.07345     0.11437     0.93710     0.86490    
-23.01000     0.07345     0.11437     0.93710     0.86490    
-22.98000     0.07345     0.11437     0.93710     0.86490    
-22.95000     0.07345     0.11437     0.93710     0.86490    
-22.92000     0.07345     0.11437     0.93710     0.86490    
-22.89000     0.07345     0.11437     0.93710     0.86490    
-22.86000     0.07345     0.11437     0.93710     0.86490    
-22.83000     0.07345     0.11437     0.93710     0.86490    
-22.80000     0.07345     0.11437     0.93710     0.86490    
-22.77000     0.07345     0.11437     0.93710     0.86490    
-22.74000     0.07345     0.11437     0.93710     0.86490    
-22.71000     0.07345     0.11437     0.93710     0.86490    
-22.68000     0.07345     0.11437     0.93710     0.86490    
-22.65000     0.07345     0.11437     0.93710     0.86490    
-22.62000     0.07345     0.11437     0.93710     0.86490    
-22.59000     0.07345     0.11437     0.93710     0.86490    
-22.56000     0.07345     0.11437     0.93710     0.86490    
-22.53000     0.07345     0.11437     0.93710     0.86490    
-22.50000     0.07345     0.11437     0.93710     0.86490    
-22.47000     0.07345     0.11437     0.93710     0.86490    
-22.44000     0.07345     0.11437     0.93710     0.86490    
-22.41000     0.07345     0.11437     0.93710     0.86480    
-22.38000     0.07345     0.11437     0.93710     0.86480    
-22.35000     0.07345     0.11437     0.93710     0.86480    
-22.32000     0.07345     0.11437     0.93710     0.86480    
-22.29000     0.07345     0.11437     0.93710     0.86480    
-22.26000     0.07345     0.11437     0.93710     0.86480    
-22.23000     0.07345     0.11437     0.93710     0.86470    
-22.20000     0.07345     0.11437     0.93710     0.86460    
-22.17000     0.07345     0.11437     0.93710     0.86460    
-22.14000     0.07345     0.11437     0.93710     0.86450    
-22.11000     0.07345     0.11437     0.93710     0.86440    
-22.08000     0.07345     0.11437     0.93710     0.86420    
-22.05000     0.07345     0.11437     0.93710     0.86400    
-22.02000     0.07345     0.11437     0.93710     0.86380    
-21.99000     0.07345     0.11437     0.93710     0.86360    
-21.96000     0.07345     0.11437     0.93710     0.86340    
-21.93000     0.07345     0.11437     0.93710     0.86310    
-21.90000     0.07345     0.11437     0.93710     0.86280    
-21.87000     0.07345     0.11437     0.93710     0.86240    
-21.84000     0.07345     0.11437     0.93710     0.86210    
-21.81000     0.07345     0.11437     0.93710     0.86170    
-21.78000     0.07345     0.11437     0.93710     0.86130    
-21.75000     0.07345     0.11437     0.93710     0.86090    
-21.72000     0.07345     0.11437     0.93710     0.86050    
-21.69000     0.07345     0.11437     0.93710     0.86000    
-21.66000     0.07345     0.11437     0.93710     0.85950    
-21.63000     0.07345     0.11437     0.93710     0.85890    
-21.60000     0.07345     0.11437     0.93710     0.85830    
-21.57000     0.07345     0.11437     0.93710     0.85760    
-21.54000     0.07345     0.11437     0.93710     0.85680    
-21.51000     0.07345     0.11437     0.93710     0.85590    
-21.48000     0.07345     0.11437     0.93710     0.85490    
-21.45000     0.07345     0.11437     0.93710     0.85360    
-21.42000     0.07345     0.11437     0.93710     0.85210    
-21.39000     0.07345     0.11437     0.93710     0.85010    
-21.36000     0.07345     0.11437     0.93710     0.84740    
-21.33000     0.07345     0.11437     0.93710     0.84380    
-21.30000     0.07345     0.11437     0.93710     0.83890    
-21.27000     0.07345     0.11437     0.93710     0.83200    
-21.24000     0.07345     0.11437     0.93710     0.82260    
-21.21000     0.07345     0.11437     0.93710     0.80990    
-21.18000     0.07345     0.11437     0.93710     0.79310    
-21.15000     0.07345     0.11437     0.93710     0.77160    
-21.12000     0.07345     0.11437     0.93710     0.74470    
-21.09000     0.07345     0.11437     0.93710     0.71240    
-21.06000     0.07345     0.11437     0.93710     0.67460    
-21.03000     0.07345     0.11437     0.93710     0.63210    
-21.00000     0.07345     0.11437     0.93710     0.58600    
-20.97000     0.07345     0.11437     0.93710     0.53760    
-20.94000     0.07345     0.11437     0.93710     0.48860    
-20.91000     0.07345     0.11437     0.93710     0.44040    
-20.88000     0.07345     0.11437     0.93710     0.39440    
-20.85000     0.07345     0.11437     0.93710     0.35140    
-20.82000     0.07345     0.11437     0.93710     0.31200    
-20.79000     0.07345     0.11437     0.93710     0.27630    
-20.76000     0.07345     0.11437     0.93710     0.24400    
-20.73000     0.07345     0.11437     0.93710     0.21500    
-20.70000     0.07345     0.11437     0.93710     0.18890    
-20.67000     0.07345     0.11437     0.93710     0.16520    
-20.64000     0.07345     0.11437     0.93710     0.14380    
-20.61000     0.07345     0.11437     0.93710     0.12440    
-20.58000     0.07345     0.11437     0.93710     0.10710    
-20.55000     0.07345     0.11437     0.93710     0.09177    
-20.52000     0.07345     0.11437     0.93710     0.07847    
-20.49000     0.07345     0.11437     0.93710     0.06716    
-20.46000     0.07345     0.11437     0.93710     0.05774    
-20.43000     0.07345     0.11437     0.93710     0.05005    
-20.40000     0.07345     0.11437     0.93710     0.04393    
-20.37000     0.07345     0.11437     0.93710     0.03914    
-20.34000     0.07345     0.11437     0.93710     0.03551    
-20.31000     0.07345     0.11437     0.93710     0.03282    
-20.28000     0.07345     0.11437     0.93710     0.03094    
-20.25000     0.07345     0.11437     0.93710     0.02974    
-20.22000     0.07345     0.11437     0.93710     0.02912    
-20.19000     0.07345     0.11437     0.93710     0.02902    
-20.16000     0.07345     0.11437     0.93710     0.02944    
-20.13000     0.07345     0.11437     0.93710     0.03039    
-20.10000     0.07345     0.11437     0.93710     0.03195    
-20.07000     0.07345     0.11437     0.93710     0.03426    
-20.04000     0.07345     0.11437     0.93710     0.03750    
-20.01000     0.07345     0.11437     0.93710     0.04198    
-19.98000     0.07345     0.11437     0.93710     0.04808    
-19.95000     0.07345     0.11437     0.93710     0.05634    
-19.92000     0.07345     0.11437     0.93710     0.06746    
-19.89000     0.07345     0.11437     0.93710     0.08233    
-19.86000     0.07345     0.11437     0.93710     0.10200    
-19.83000     0.07345     0.11437     0.93710     0.12760    
-19.80000     0.07345     0.11437     0.93710     0.16040    
-19.77000     0.07345     0.11437     0.93710     0.20110    
-19.74000     0.07345     0.11437     0.93710     0.25030    
-19.71000     0.07345     0.11437     0.93710     0.30740    
-19.68000     0.07345     0.11437     0.93710     0.37090    
-19.65000     0.07345     0.11437     0.93710     0.43860    
-19.62000     0.07345     0.11437     0.93710     0.50730    
-19.59000     0.07345     0.11437     0.93710     0.57380    
-19.56000     0.07345     0.11437     0.93710     0.63500    
-19.53000     0.07345     0.11437     0.93710     0.68880    
-19.50000     0.07345     0.11437     0.93710     0.73400    
-19.47000     0.07345     0.11437     0.93710     0.77050    
-19.44000     0.07345     0.11437     0.93710     0.79860    
-19.41000     0.07345     0.11437     0.93710     0.81960    
-19.38000     0.07345     0.11437     0.93710     0.83470    
-19.35000     0.07345     0.11437     0.93710     0.84530    
-19.32000     0.07345     0.11437     0.93710     0.85230    
-19.29000     0.07345     0.11437     0.93710     0.85700    
-19.26000     0.07345     0.11437     0.93710     0.85990    
-19.23000     0.07345     0.11437     0.93710     0.86170    
-19.20000     0.07345     0.11437     0.93710     0.86270    
-19.17000     0.07345     0.11437     0.93710     0.86330    
-19.14000     0.07345     0.11437     0.93710     0.86360    
-19.11000     0.07345     0.11437     0.93710     0.86380    
-19.08000     0.07345     0.11437     0.93710     0.86380    
-19.05000     0.07345     0.11437     0.93710     0.86380    
-19.02000     0.07345     0.11437     0.93710     0.86370    
-18.99000     0.07345     0.11437     0.93710     0.86360    
-18.96000     0.07345     0.11437     0.93710     0.86350    
-18.93000     0.07345     0.11437     0.93710     0.86330    
-18.90000     0.07345     0.11437     0.93710     0.86320    
-18.87000     0.07345     0.11437     0.93710     0.86300    
-18.84000     0.07345     0.11437     0.93710     0.86290    
-18.81000     0.07345     0.11437     0.93710     0.86270    
-18.78000     0.07345     0.11437     0.93710     0.86250    
-18.75000     0.07345     0.11437     0.93710     0.86240    
-18.72000     0.07345     0.11437     0.93710     0.86220    
-18.69000     0.07345     0.11437     0.93710     0.86200    
-18.66000     0.07345     0.11437     0.93710     0.86190    
-18.63000     0.07345     0.11437     0.93710     0.86170    
-18.60000     0.07345     0.11437     0.93710     0.86160    
-18.57000     0.07345     0.11437     0.93710     0.86150    
-18.54000     0.07345     0.11437     0.93710     0.86140    
-18.51000     0.07345     0.11437     0.93710     0.86120    
-18.48000     0.07345     0.11437     0.93710     0.86110    
-18.45000     0.07345     0.11437     0.93710     0.86100    
-18.42000     0.07345     0.11437     0.93710     0.86080    
-18.39000     0.07345     0.11437     0.93710     0.86070    
-18.36000     0.07345     0.11437     0.93710     0.86060    
-18.33000     0.07345     0.11437     0.93710     0.86050    
-18.30000     0.07345     0.11437     0.93710     0.86040    
-18.27000     0.07345     0.11437     0.93710     0.86030    
-18.24000     0.07345     0.11437     0.93710     0.86030    
-18.21000     0.07345     0.11437     0.93710     0.86030    
-18.18000     0.07345     0.11437     0.93710     0.86030    
-18.15000     0.07345     0.11437     0.93710     0.86030    
-18.12000     0.07345     0.11437     0.93710     0.86040    
-18.09000     0.07345     0.11437     0.93710     0.86050    
-18.06000     0.07345     0.11437     0.93710     0.86060    
-18.03000     0.07345     0.11437     0.93710     0.86070    
-18.00000     0.07345     0.11437     0.93710     0.86070    
-17.97000     0.07345     0.11437     0.93710     0.86080    
-17.94000     0.07345     0.11437     0.93710     0.86090    
-17.91000     0.07345     0.11437     0.93710     0.86090    
-17.88000     0.07345     0.11437     0.93710     0.86100    
-17.85000     0.07345     0.11437     0.93710     0.86100    
-17.82000     0.07345     0.11437     0.93710     0.86100    
-17.79000     0.07345     0.11437     0.93710     0.86100    
-17.76000     0.07345     0.11437     0.93710     0.86090    
-17.73000     0.07345     0.11437     0.93710     0.86090    
-17.70000     0.07345     0.11437     0.93710     0.86080    
-17.67000     0.07345     0.11437     0.93710     0.86070    
-17.64000     0.07345     0.11437     0.93710     0.86060    
-17.61000     0.07345     0.11437     0.93710     0.86040    
-17.58000     0.07345     0.11437     0.93710     0.86030    
-17.55000     0.07345     0.11437     0.93710     0.86000    
-17.52000     0.07345     0.11437     0.93710     0.85970    
-17.49000     0.07345     0.11437     0.93710     0.85930    
-17.46000     0.07345     0.11437     0.93710     0.85890    
-17.43000     0.07345     0.11437     0.93710     0.85830    
-17.40000     0.07345     0.11437     0.93710     0.85760    
-17.37000     0.07345     0.11437     0.93710     0.85670    
-17.34000     0.07345     0.11437     0.93710     0.85560    
-17.31000     0.07345     0.11437     0.93710     0.85420    
-17.28000     0.07345     0.11437     0.93710     0.85230    
-17.25000     0.07345     0.11437     0.93710     0.84970    
-17.22000     0.07345     0.11437     0.93710     0.84610    
-17.19000     0.07345     0.11437     0.93710     0.84110    
-17.16000     0.07345     0.11437     0.93710     0.83400    
-17.13000     0.07345     0.11437     0.93710     0.82430    
-17.10000     0.07345     0.11437     0.93710     0.81110    
-17.07000     0.07345     0.11437     0.93710     0.79360    
-17.04000     0.07345     0.11437     0.93710     0.77110    
-17.01000     0.07345     0.11437     0.93710     0.74310    
-16.98000     0.07345     0.11437     0.93710     0.70950    
-16.95000     0.07345     0.11437     0.93710     0.67090    
-16.92000     0.07345     0.11437     0.93710     0.62810    
-16.89000     0.07345     0.11437     0.93710     0.58290    
-16.86000     0.07345     0.11437     0.93710     0.53720    
-16.83000     0.07345     0.11437     0.93710     0.49280    
-16.80000     0.07345     0.11437     0.93710     0.45170    
-16.77000     0.07345     0.11437     0.93710     0.41520    
-16.74000     0.07345     0.11437     0.93710     0.38410    
-16.71000     0.07345     0.11437     0.93710     0.35880    
-16.68000     0.07345     0.11437     0.93710     0.33900    
-16.65000     0.07345     0.11437     0.93710     0.32420    
-16.62000     0.07345     0.11437     0.93710     0.31320    
-16.59000     0.07345     0.11437     0.93710     0.30470    
-16.56000     0.07345     0.11437     0.93710     0.29700    
-16.53000     0.07345     0.11437     0.93710     0.28830    
-16.50000     0.07345     0.11437     0.93710     0.27700    
-16.47000     0.07345     0.11437     0.93710     0.26160    
-16.44000     0.07345     0.11437     0.93710     0.24190    
-16.41000     0.07345     0.11437     0.93710     0.21830    
-16.38000     0.07345     0.11437     0.93710     0.19180    
-16.35000     0.07345     0.11437     0.93710     0.16430    
-16.32000     0.07345     0.11437     0.93710     0.13740    
-16.29000     0.07345     0.11437     0.93710     0.11230    
-16.26000     0.07345     0.11437     0.93710     0.08989    
-16.23000     0.07345     0.11437     0.93710     0.07048    
-16.20000     0.07345     0.11437     0.93710     0.05409    
-16.17000     0.07345     0.11437     0.93710     0.04053    
-16.14000     0.07345     0.11437     0.93710     0.02957    
-16.11000     0.07345     0.11437     0.93710     0.02095    
-16.08000     0.07345     0.11437     0.93710     0.01439    
-16.05000     0.07345     0.11437     0.93710     0.00959    
-16.02000     0.07345     0.11437     0.93710     0.00624    
-15.99000     0.07345     0.11437     0.93710     0.00400    
-15.96000     0.07345     0.11437     0.93710     0.00255    
-15.93000     0.07345     0.11437     0.93710     0.00165    
-15.90000     0.07345     0.11437     0.93710     0.00110    
-15.87000     0.07345     0.11437     0.93710     0.00076    
-15.84000     0.07345     0.11437     0.93710     0.00056    
-15.81000     0.07345     0.11437     0.93710     0.00045    
-15.78000     0.07345     0.11437     0.93710     0.00038    
-15.75000     0.07345     0.11437     0.93710     0.00035    
-15.72000     0.07345     0.11437     0.93710     0.00034    
-15.69000     0.07345     0.11437     0.93710     0.00036    
-15.66000     0.07345     0.11437     0.93710     0.00039    
-15.63000     0.07345     0.11437     0.93710     0.00045    
-15.60000     0.07345     0.11437     0.93710     0.00053    
-15.57000     0.07345     0.11437     0.93710     0.00065    
-15.54000     0.07345     0.11437     0.93710     0.00082    
-15.51000     0.07345     0.11437     0.93710     0.00106    
-15.48000     0.07345     0.11437     0.93710     0.00141    
-15.45000     0.07345     0.11437     0.93710     0.00195    
-15.42000     0.07345     0.11437     0.93710     0.00280    
-15.39000     0.07345     0.11437     0.93710     0.00416    
-15.36000     0.07345     0.11437     0.93710     0.00638    
-15.33000     0.07345     0.11437     0.93710     0.01002    
-15.30000     0.07345     0.11437     0.93710     0.01594    
-15.27000     0.07345     0.11437     0.93710     0.02537    
-15.24000     0.07345     0.11437     0.93710     0.03987    
-15.21000     0.07345     0.11437     0.93710     0.06109    
-15.18000     0.07345     0.11437     0.93710     0.09030    
-15.15000     0.07345     0.11437     0.93710     0.12770    
-15.12000     0.07345     0.11437     0.93710     0.17210    
-15.09000     0.07345     0.11437     0.93710     0.22060    
-15.06000     0.07345     0.11437     0.93710     0.26950    
-15.03000     0.07345     0.11437     0.93710     0.31520    
-15.00000     0.07345     0.11437     0.93710     0.35530    
-14.97000     0.07345     0.11437     0.93710     0.38840    
-14.94000     0.07345     0.11437     0.93710     0.41470    
-14.91000     0.07345     0.11437     0.93710     0.43490    
-14.88000     0.07345     0.11437     0.93710     0.45010    
-14.85000     0.07345     0.11437     0.93710     0.46090    
-14.82000     0.07345     0.11437     0.93710     0.46750    
-14.79000     0.07345     0.11437     0.93710     0.46960    
-14.76000     0.07345     0.11437     0.93710     0.46660    
-14.73000     0.07345     0.11437     0.93710     0.45780    
-14.70000     0.07345     0.11437     0.93710     0.44290    
-14.67000     0.07345     0.11437     0.93710     0.42200    
-14.64000     0.07345     0.11437     0.93710     0.39580    
-14.61000     0.07345     0.11437     0.93710     0.36570    
-14.58000     0.07345     0.11437     0.93710     0.33330    
-14.55000     0.07345     0.11437     0.93710     0.29990    
-14.52000     0.07345     0.11437     0.93710     0.26680    
-14.49000     0.07345     0.11437     0.93710     0.23480    
-14.46000     0.07345     0.11437     0.93710     0.20440    
-14.43000     0.07345     0.11437     0.93710     0.17590    
-14.40000     0.07345     0.11437     0.93710     0.14930    
-14.37000     0.07345     0.11437     0.93710     0.12490    
-14.34000     0.07345     0.11437     0.93710     0.10270    
-14.31000     0.07345     0.11437     0.93710     0.08299    
-14.28000     0.07345     0.11437     0.93710     0.06603    
-14.25000     0.07345     0.11437     0.93710     0.05191    
-14.22000     0.07345     0.11437     0.93710     0.04054    
-14.19000     0.07345     0.11437     0.93710     0.03170    
-14.16000     0.07345     0.11437     0.93710     0.02504    
-14.13000     0.07345     0.11437     0.93710     0.02016    
-14.10000     0.07345     0.11437     0.93710     0.01669    
-14.07000     0.07345     0.11437     0.93710     0.01430    
-14.04000     0.07345     0.11437     0.93710     0.01274    
-14.01000     0.07345     0.11437     0.93710     0.01182    
-13.98000     0.07345     0.11437     0.93710     0.01140    
-13.95000     0.07345     0.11437     0.93710     0.01141    
-13.92000     0.07345     0.11437     0.93710     0.01178    
-13.89000     0.07345     0.11437     0.93710     0.01250    
-13.86000     0.07345     0.11437     0.93710     0.01356    
-13.83000     0.07345     0.11437     0.93710     0.01498    
-13.80000     0.07345     0.11437     0.93710     0.01684    
-13.77000     0.07345     0.11437     0.93710     0.01925    
-13.74000     0.07345     0.11437     0.93710     0.02240    
-13.71000     0.07345     0.11437     0.93710     0.02657    
-13.68000     0.07345     0.11437     0.93710     0.03218    
-13.65000     0.07345     0.11437     0.93710     0.03979    
-13.62000     0.07345     0.11437     0.93710     0.05020    
-13.59000     0.07345     0.11437     0.93710     0.06441    
-13.56000     0.07345     0.11437     0.93710     0.08367    
-13.53000     0.07345     0.11437     0.93710     0.10940    
-13.50000     0.07345     0.11437     0.93710     0.14290    
-13.47000     0.07345     0.11437     0.93710     0.18530    
-13.44000     0.07345     0.11437     0.93710     0.23690    
-13.41000     0.07345     0.11437     0.93710     0.29720    
-13.38000     0.07345     0.11437     0.93710     0.36410    
-13.35000     0.07345     0.11437     0.93710     0.43470    
-13.32000     0.07345     0.11437     0.93710     0.50560    
-13.29000     0.07345     0.11437     0.93710     0.57300    
-13.26000     0.07345     0.11437     0.93710     0.63410    
-13.23000     0.07345     0.11437     0.93710     0.68670    
-13.20000     0.07345     0.11437     0.93710     0.73010    
-13.17000     0.07345     0.11437     0.93710     0.76430    
-13.14000     0.07345     0.11437     0.93710     0.79030    
-13.11000     0.07345     0.11437     0.93710     0.80930    
-13.08000     0.07345     0.11437     0.93710     0.82260    
-13.05000     0.07345     0.11437     0.93710     0.83170    
-13.02000     0.07345     0.11437     0.93710     0.83750    
-12.99000     0.07345     0.11437     0.93710     0.84120    
-12.96000     0.07345     0.11437     0.93710     0.84330    
-12.93000     0.07345     0.11437     0.93710     0.84440    
-12.90000     0.07345     0.11437     0.93710     0.84480    
-12.87000     0.07345     0.11437     0.93710     0.84480    
-12.84000     0.07345     0.11437     0.93710     0.84470    
-12.81000     0.07345     0.11437     0.93710     0.84440    
-12.78000     0.07345     0.11437     0.93710     0.84400    
-12.75000     0.07345     0.11437     0.93710     0.84370    
-12.72000     0.07345     0.11437     0.93710     0.84330    
-12.69000     0.07345     0.11437     0.93710     0.84300    
-12.66000     0.07345     0.11437     0.93710     0.84270    
-12.63000     0.07345     0.11437     0.93710     0.84240    
-12.60000     0.07345     0.11437     0.93710     0.84210    
-12.57000     0.07345     0.11437     0.93710     0.84190    
-12.54000     0.07345     0.11437     0.93710     0.84170    
-12.51000     0.07345     0.11437     0.93710     0.84160    
-12.48000     0.07345     0.11437     0.93710     0.84160    
-12.45000     0.07345     0.11437     0.93710     0.84160    
-12.42000     0.07345     0.11437     0.93710     0.84170    
-12.39000     0.07345     0.11437     0.93710     0.84180    
-12.36000     0.07345     0.11437     0.93710     0.84190    
-12.33000     0.07345     0.11437     0.93710     0.84210    
-12.30000     0.07345     0.11437     0.93710     0.84220    
-12.27000     0.07345     0.11437     0.93710     0.84230    
-12.24000     0.07345     0.11437     0.93710     0.84240    
-12.21000     0.07345     0.11437     0.93710     0.84240    
-12.18000     0.07345     0.11437     0.93710     0.84230    
-12.15000     0.07345     0.11437     0.93710     0.84220    
-12.12000     0.07345     0.11437     0.93710     0.84180    
-12.09000     0.07345     0.11437     0.93710     0.84130    
-12.06000     0.07345     0.11437     0.93710     0.84060    
-12.03000     0.07345     0.11437     0.93710     0.83950    
-12.00000     0.07345     0.11437     0.93710     0.83820    
-11.97000     0.07345     0.11437     0.93710     0.83650    
-11.94000     0.07446     0.11549     0.94513     0.83450    
-11.91000     0.07812     0.11958     0.97416     0.83220    
-11.88000     0.07454     0.12761     1.03495     0.82960    
-11.85000     0.07244     0.13448     1.08575     0.82680    
-11.82000     0.07719     0.13685     1.09986     0.82380    
-11.79000     0.08282     0.13864     1.10921     0.82090    
-11.76000     0.07888     0.13671     1.08881     0.81790    
-11.73000     0.07047     0.13800     1.09409     0.81520    
-11.70000     0.06871     0.15354     1.21180     0.81260    
-11.67000     0.07529     0.13960     1.09687     0.81030    
-11.64000     0.08404     0.11607     0.90775     0.80840    
-11.61000     0.08424     0.12217     0.95104     0.80680    
-11.58000     0.08336     0.13203     1.02302     0.80550    
-11.55000     0.07521     0.13392     1.03301     0.80450    
-11.52000     0.06822     0.13473     1.03445     0.80380    
-11.49000     0.07079     0.14010     1.07069     0.80340    
-11.46000     0.07389     0.14665     1.11556     0.80330    
-11.43000     0.07358     0.15479     1.17202     0.80350    
-11.40000     0.07223     0.16195     1.22055     0.80400    
-11.37000     0.06806     0.16018     1.20160     0.80470    
-11.34000     0.06297     0.15477     1.15558     0.80560    
-11.31000     0.06068     0.15116     1.12335     0.80680    
-11.28000     0.06330     0.14690     1.08658     0.80810    
-11.25000     0.07754     0.13896     1.02306     0.80960    
-11.22000     0.09178     0.13102     0.96004     0.81120    
-11.19000     0.09839     0.13791     1.00574     0.81290    
-11.16000     0.10376     0.14722     1.06858     0.81450    
-11.13000     0.09646     0.15852     1.14513     0.81600    
-11.10000     0.07946     0.16575     1.19169     0.81730    
-11.07000     0.07673     0.15148     1.08397     0.81840    
-11.04000     0.07673     0.13310     0.94793     0.81920    
-11.01000     0.08127     0.14047     0.99561     0.81960    
-10.98000     0.09059     0.17413     1.22812     0.81960    
-10.95000     0.09743     0.17744     1.24560     0.81900    
-10.92000     0.10051     0.16378     1.14421     0.81790    
-10.89000     0.09416     0.15179     1.05535     0.81630    
-10.86000     0.08673     0.14173     0.98060     0.81400    
-10.83000     0.07916     0.14329     0.98658     0.81110    
-10.80000     0.07227     0.14557     0.99742     0.80760    
-10.77000     0.08084     0.15161     1.03374     0.80350    
-10.74000     0.08683     0.14837     1.00677     0.79890    
-10.71000     0.08606     0.13463     0.90911     0.79390    
-10.68000     0.08636     0.12624     0.84823     0.78850    
-10.65000     0.09098     0.14029     0.93798     0.78300    
-10.62000     0.08653     0.14587     0.97053     0.77750    
-10.59000     0.07566     0.14384     0.95233     0.77220    
-10.56000     0.07380     0.14773     0.97324     0.76720    
-10.53000     0.07992     0.15681     1.02797     0.76260    
-10.50000     0.07947     0.15237     0.99398     0.75860    
-10.47000     0.07503     0.13707     0.88969     0.75530    
-10.44000     0.09160     0.14651     0.94619     0.75270    
-10.41000     0.10735     0.15691     1.00828     0.75100    
-10.38000     0.09706     0.15842     1.01297     0.75000    
-10.35000     0.08243     0.15841     1.00783     0.74980    
-10.32000     0.08804     0.15656     0.99106     0.75040    
-10.29000     0.09868     0.15560     0.98002     0.75170    
-10.26000     0.09698     0.16817     1.05381     0.75370    
-10.23000     0.08986     0.18232     1.13673     0.75640    
-10.20000     0.07957     0.17508     1.08613     0.75970    
-10.17000     0.06998     0.16212     1.00057     0.76350    
-10.14000     0.07385     0.16725     1.02694     0.76790    
-10.11000     0.08321     0.17934     1.09561     0.77280    
-10.08000     0.09210     0.18107     1.10055     0.77820    
-10.05000     0.10055     0.17339     1.04845     0.78410    
-10.02000     0.10560     0.16782     1.00957     0.79020    
-9.99000     0.10338     0.16675     0.99793     0.79670    
-9.96000     0.10283     0.17190     1.02345     0.80330    
-9.93000     0.10378     0.18178     1.07669     0.80990    
-9.90000     0.10985     0.18334     1.08039     0.81640    
-9.87000     0.12692     0.16703     0.97918     0.82260    
-9.84000     0.13252     0.18468     1.07685     0.82850    
-9.81000     0.12945     0.22801     1.32253     0.83390    
-9.78000     0.12650     0.24151     1.39366     0.83860    
-9.75000     0.12476     0.22675     1.30166     0.84260    
-9.72000     0.12745     0.22409     1.27961     0.84590    
-9.69000     0.13123     0.22276     1.26535     0.84820    
-9.66000     0.13404     0.20662     1.16753     0.84970    
-9.63000     0.13431     0.18838     1.05875     0.85010    
-9.60000     0.11877     0.20494     1.14569     0.84960    
-9.57000     0.11306     0.22306     1.24040     0.84810    
-9.54000     0.12165     0.23329     1.29040     0.84560    
-9.51000     0.12361     0.22746     1.25143     0.84220    
-9.48000     0.12361     0.21687     1.18684     0.83790    
-9.45000     0.11770     0.21170     1.15228     0.83280    
-9.42000     0.10457     0.21617     1.17028     0.82710    
-9.39000     0.11400     0.21704     1.16869     0.82070    
-9.36000     0.12793     0.21768     1.16577     0.81390    
-9.33000     0.14121     0.22592     1.20336     0.80680    
-9.30000     0.15426     0.23625     1.25160     0.79940    
-9.27000     0.15500     0.23029     1.21351     0.79180    
-9.24000     0.13834     0.21003     1.10062     0.78410    
-9.21000     0.12212     0.20831     1.08564     0.77620    
-9.18000     0.10593     0.20768     1.07642     0.76810    
-9.15000     0.11287     0.23111     1.19124     0.75990    
-9.12000     0.12443     0.25220     1.29284     0.75140    
-9.09000     0.12891     0.24157     1.23156     0.74260    
-9.06000     0.13191     0.22429     1.13719     0.73370    
-9.03000     0.13126     0.20973     1.05743     0.72460    
-9.00000     0.11877     0.20398     1.02276     0.71560    
-8.97000     0.11623     0.19917     0.99308     0.70670    
-8.94000     0.13892     0.19616     0.97260     0.69820    
-8.91000     0.15915     0.19823     0.97735     0.69030    
-8.88000     0.15447     0.22444     1.10036     0.68310    
-8.85000     0.14943     0.22620     1.10285     0.67680    
-8.82000     0.14681     0.21259     1.03060     0.67150    
-8.79000     0.14177     0.20408     0.98379     0.66720    
-8.76000     0.13139     0.20681     0.99128     0.66400    
-8.73000     0.12878     0.20997     1.00075     0.66170    
-8.70000     0.14835     0.21320     1.01038     0.66050    
-8.67000     0.15830     0.22092     1.04093     0.66020    
-8.64000     0.14621     0.23890     1.11923     0.66080    
-8.61000     0.12929     0.22921     1.06778     0.66230    
-8.58000     0.11274     0.21072     0.97603     0.66480    
-8.55000     0.12181     0.21570     0.99328     0.66830    
-8.52000     0.14069     0.22973     1.05179     0.67300    
-8.49000     0.15859     0.24304     1.10629     0.67880    
-8.46000     0.17507     0.25220     1.14137     0.68600    
-8.43000     0.18882     0.25313     1.13893     0.69450    
-8.40000     0.18506     0.24738     1.10660     0.70430    
-8.37000     0.17089     0.23766     1.05691     0.71520    
-8.34000     0.17294     0.24056     1.06352     0.72720    
-8.31000     0.18106     0.24848     1.09209     0.74000    
-8.28000     0.16518     0.24166     1.05592     0.75310    
-8.25000     0.14231     0.23140     1.00510     0.76620    
-8.22000     0.15173     0.24746     1.06849     0.77890    
-8.19000     0.17492     0.27482     1.17959     0.79080    
-8.16000     0.18528     0.29199     1.24588     0.80150    
-8.13000     0.19155     0.30519     1.29451     0.81070    
-8.10000     0.19181     0.30576     1.28917     0.81820    
-8.07000     0.19138     0.30446     1.27602     0.82410    
-8.04000     0.18976     0.29965     1.24836     0.82820    
-8.01000     0.18814     0.29484     1.22095     0.83080    
-7.98000     0.18727     0.29478     1.21332     0.83220    
-7.95000     0.18682     0.29745     1.21693     0.83260    
-7.92000     0.18637     0.30012     1.22043     0.83230    
-7.89000     0.18592     0.30279     1.22382     0.83160    
-7.86000     0.18505     0.30600     1.22931     0.83080    
-7.83000     0.17553     0.32046     1.27951     0.82990    
-7.80000     0.19784     0.35612     1.41324     0.82910    
-7.77000     0.16892     0.33072     1.30476     0.82830    
-7.74000     0.14358     0.28295     1.10915     0.82730    
-7.71000     0.14245     0.29296     1.14129     0.82600    
-7.68000     0.14133     0.30296     1.17298     0.82420    
-7.65000     0.14021     0.31296     1.20423     0.82140    
-7.62000     0.13909     0.32296     1.23500     0.81760    
-7.59000     0.13797     0.33297     1.26537     0.81260    
-7.56000     0.13685     0.34297     1.29524     0.80610    
-7.53000     0.15707     0.35768     1.34238     0.79830    
-7.50000     0.18825     0.37360     1.39334     0.78920    
-7.47000     0.19239     0.37233     1.37996     0.77880    
-7.44000     0.18152     0.36156     1.33162     0.76750    
-7.41000     0.19212     0.35866     1.31255     0.75520    
-7.38000     0.22927     0.36664     1.33330     0.74210    
-7.35000     0.21154     0.37294     1.34763     0.72840    
-7.32000     0.18408     0.37887     1.36036     0.71400    
-7.29000     0.18376     0.37136     1.32498     0.69900    
-7.26000     0.20439     0.35191     1.24752     0.68320    
-7.23000     0.20380     0.33695     1.18688     0.66690    
-7.20000     0.21633     0.32395     1.13374     0.64990    
-7.17000     0.24427     0.31248     1.08659     0.63240    
-7.14000     0.25847     0.31294     1.08111     0.61460    
-7.11000     0.23755     0.34276     1.17653     0.59690    
-7.08000     0.23300     0.33101     1.12892     0.57960    
-7.05000     0.23383     0.30813     1.04400     0.56310    
-7.02000     0.23254     0.29338     0.98754     0.54780    
-6.99000     0.22558     0.30028     1.00416     0.53400    
-6.96000     0.22240     0.30030     0.99771     0.52200    
-6.93000     0.22411     0.29140     0.96180     0.51190    
-6.90000     0.22718     0.28242     0.92602     0.50390    
-6.87000     0.24746     0.27238     0.88724     0.49780    
-6.84000     0.26581     0.26249     0.84936     0.49370    
-6.81000     0.23389     0.25605     0.82304     0.49140    
-6.78000     0.21266     0.25070     0.80050     0.49060    
-6.75000     0.20785     0.24699     0.78342     0.49140    
-6.72000     0.21469     0.24686     0.77777     0.49360    
-6.69000     0.24923     0.25577     0.80045     0.49710    
-6.66000     0.27171     0.27259     0.84731     0.50200    
-6.63000     0.27392     0.29687     0.91666     0.50840    
-6.60000     0.27177     0.28793     0.88314     0.51640    
-6.57000     0.26671     0.25693     0.78268     0.52610    
-6.54000     0.25814     0.27145     0.82128     0.53760    
-6.51000     0.24934     0.28889     0.86813     0.55110    
-6.48000     0.26190     0.29163     0.87043     0.56670    
-6.45000     0.27855     0.29398     0.87147     0.58410    
-6.42000     0.28713     0.30930     0.91060     0.60340    
-6.39000     0.29070     0.32312     0.94478     0.62420    
-6.36000     0.28152     0.32380     0.94028     0.64610    
-6.33000     0.27228     0.33225     0.95812     0.66860    
-6.30000     0.27198     0.37323     1.06891     0.69130    
-6.27000     0.27177     0.40633     1.15570     0.71350    
-6.24000     0.26837     0.40886     1.15484     0.73470    
-6.21000     0.27988     0.42194     1.18346     0.75440    
-6.18000     0.31168     0.44935     1.25158     0.77210    
-6.15000     0.32045     0.46529     1.28697     0.78750    
-6.12000     0.32146     0.47736     1.31110     0.80050    
-6.09000     0.30870     0.48981     1.33589     0.81070    
-6.06000     0.28948     0.50249     1.36084     0.81830    
-6.03000     0.29410     0.51589     1.38730     0.82330    
-6.00000     0.31236     0.52860     1.41143     0.82560    
-5.97000     0.31950     0.53302     1.41319     0.82540    
-5.94000     0.32024     0.53494     1.40820     0.82270    
-5.91000     0.30686     0.54580     1.42657     0.81760    
-5.88000     0.29279     0.55738     1.44646     0.81030    
-5.85000     0.30219     0.56524     1.45637     0.80090    
-5.82000     0.31256     0.57294     1.46567     0.78950    
-5.79000     0.33317     0.58536     1.48667     0.77640    
-5.76000     0.36334     0.60218     1.51840     0.76200    
-5.73000     0.38429     0.60986     1.52673     0.74640    
-5.70000     0.37855     0.59109     1.46907     0.73010    
-5.67000     0.36477     0.57549     1.41990     0.71340    
-5.64000     0.33894     0.56463     1.38303     0.69650    
-5.61000     0.33408     0.55377     1.34652     0.67970    
-5.58000     0.34964     0.54289     1.31048     0.66300    
-5.55000     0.35981     0.55252     1.32394     0.64650    
-5.52000     0.36429     0.58340     1.38766     0.63010    
-5.49000     0.37366     0.59159     1.39689     0.61380    
-5.46000     0.38794     0.57389     1.34515     0.59750    
-5.43000     0.39604     0.54794     1.27487     0.58110    
-5.40000     0.40204     0.52101     1.20321     0.56480    
-5.37000     0.41644     0.51887     1.18940     0.54870    
-5.34000     0.39496     0.53411     1.21523     0.53290    
-5.31000     0.35455     0.55814     1.26045     0.51780    
-5.28000     0.36372     0.55260     1.23870     0.50370    
-5.25000     0.40391     0.52863     1.17614     0.49080    
-5.22000     0.42481     0.52154     1.15163     0.47940    
-5.19000     0.42572     0.52695     1.15491     0.46970    
-5.16000     0.42164     0.47886     1.04169     0.46180    
-5.13000     0.41668     0.42149     0.90989     0.45580    
-5.10000     0.41711     0.46722     1.00087     0.45150    
-5.07000     0.42272     0.47732     1.01493     0.44900    
-5.04000     0.43058     0.44811     0.94564     0.44800    
-5.01000     0.43555     0.44790     0.93793     0.44860    
-4.98000     0.43751     0.47811     0.99359     0.45060    
-4.95000     0.43168     0.49987     1.03092     0.45410    
-4.92000     0.40805     0.49995     1.02322     0.45910    
-4.89000     0.40700     0.49562     1.00661     0.46580    
-4.86000     0.46134     0.48896     0.98546     0.47440    
-4.83000     0.47495     0.50467     1.00927     0.48510    
-4.80000     0.46074     0.53410     1.05992     0.49800    
-4.77000     0.45822     0.53442     1.05247     0.51350    
-4.74000     0.46637     0.50817     0.99304     0.53150    
-4.71000     0.47502     0.49865     0.96680     0.55210    
-4.68000     0.48612     0.57126     1.09894     0.57510    
-4.65000     0.49201     0.62412     1.19145     0.60010    
-4.62000     0.48222     0.61751     1.16966     0.62670    
-4.59000     0.47243     0.61089     1.14811     0.65430    
-4.56000     0.49131     0.65657     1.22423     0.68200    
-4.53000     0.51383     0.71051     1.31450     0.70920    
-4.50000     0.49638     0.74386     1.36544     0.73510    
-4.47000     0.48667     0.76562     1.39437     0.75900    
-4.44000     0.49237     0.77902     1.40765     0.78040    
-4.41000     0.49560     0.80212     1.43794     0.79900    
-4.38000     0.49384     0.84501     1.50294     0.81470    
-4.35000     0.49098     0.87858     1.55032     0.82750    
-4.32000     0.48653     0.88685     1.55254     0.83770    
-4.29000     0.52561     0.93083     1.61660     0.84550    
-4.26000     0.55483     0.94633     1.63055     0.85140    
-4.23000     0.55983     0.93571     1.59945     0.85560    
-4.20000     0.56017     0.93143     1.57948     0.85860    
-4.17000     0.54241     0.95180     1.60117     0.86060    
-4.14000     0.52953     0.97556     1.62804     0.86190    
-4.11000     0.54487     0.99147     1.64140     0.86270    
-4.08000     0.55384     0.99982     1.64201     0.86320    
-4.05000     0.55906     1.00629     1.63942     0.86340    
-4.02000     0.56492     1.00065     1.61721     0.86350    
-3.99000     0.57127     0.97240     1.55896     0.86340    
-3.96000     0.56187     1.01595     1.61563     0.86330    
-3.93000     0.54824     1.07875     1.70167     0.86320    
-3.90000     0.55827     1.10766     1.73331     0.86310    
-3.87000     0.59247     1.10197     1.71053     0.86290    
-3.84000     0.57996     1.06845     1.64516     0.86270    
-3.81000     0.53251     1.01417     1.54903     0.86250    
-3.78000     0.52446     1.00354     1.52033     0.86230    
-3.75000     0.55762     1.03826     1.56023     0.86200    
-3.72000     0.59041     1.07170     1.59745     0.86180    
-3.69000     0.62102     1.10317     1.63109     0.86150    
-3.66000     0.61789     1.12370     1.64799     0.86130    
-3.63000     0.60017     1.13950     1.65764     0.86100    
-3.60000     0.58863     1.13436     1.63687     0.86070    
-3.57000     0.58986     1.08591     1.55423     0.86050    
-3.54000     0.57724     1.08960     1.54678     0.86020    
-3.51000     0.55510     1.12909     1.58983     0.86000    
-3.48000     0.59672     1.15733     1.61640     0.85980    
-3.45000     0.67013     1.17996     1.63461     0.85960    
-3.42000     0.72128     1.18913     1.63398     0.85940    
-3.39000     0.71741     1.16705     1.59064     0.85930    
-3.36000     0.71687     1.16362     1.57307     0.85910    
-3.33000     0.71791     1.16852     1.56686     0.85900    
-3.30000     0.72128     1.16848     1.55409     0.85900    
-3.27000     0.72579     1.16506     1.53695     0.85890    
-3.24000     0.71012     1.17429     1.53653     0.85890    
-3.21000     0.67599     1.19541     1.55150     0.85890    
-3.18000     0.66444     1.20779     1.55485     0.85890    
-3.15000     0.65878     1.21789     1.55515     0.85890    
-3.12000     0.65552     1.16806     1.47949     0.85900    
-3.09000     0.65504     1.16904     1.46866     0.85920    
-3.06000     0.65981     1.19689     1.49149     0.85930    
-3.03000     0.70137     1.18261     1.46183     0.85950    
-3.00000     0.75854     1.14802     1.40758     0.85980    
-2.97000     0.73980     1.16937     1.42212     0.86000    
-2.94000     0.68280     1.21763     1.46893     0.86030    
-2.91000     0.69772     1.16468     1.39381     0.86060    
-2.88000     0.70784     1.14400     1.35797     0.86090    
-2.85000     0.70883     1.15732     1.36273     0.86110    
-2.82000     0.71135     1.17318     1.37032     0.86140    
-2.79000     0.73895     1.21674     1.40980     0.86160    
-2.76000     0.76170     1.24410     1.43000     0.86170    
-2.73000     0.77211     1.24265     1.41693     0.86190    
-2.70000     0.78142     1.23986     1.40249     0.86190    
-2.67000     0.78205     1.24167     1.39335     0.86190    
-2.64000     0.77879     1.24546     1.38652     0.86190    
-2.61000     0.76355     1.25193     1.38268     0.86180    
-2.58000     0.74076     1.26009     1.38069     0.86170    
-2.55000     0.73362     1.26878     1.37925     0.86150    
-2.52000     0.77718     1.27921     1.37965     0.86130    
-2.49000     0.81275     1.27495     1.36430     0.86110    
-2.46000     0.79097     1.21649     1.29156     0.86080    
-2.43000     0.77486     1.19696     1.26083     0.86050    
-2.40000     0.79482     1.27839     1.33620     0.86020    
-2.37000     0.77681     1.26727     1.31435     0.85990    
-2.34000     0.76987     1.25657     1.29318     0.85950    
-2.31000     0.81694     1.26595     1.29279     0.85910    
-2.28000     0.86164     1.27931     1.29642     0.85860    
-2.25000     0.84520     1.30329     1.31064     0.85800    
-2.22000     0.81662     1.32862     1.32594     0.85730    
-2.19000     0.80418     1.34452     1.33166     0.85620    
-2.16000     0.79734     1.35656     1.33345     0.85480    
-2.13000     0.79027     1.36613     1.33278     0.85290    
-2.10000     0.78292     1.36511     1.32187     0.85020    
-2.07000     0.77478     1.32799     1.27637     0.84670    
-2.04000     0.76678     1.30870     1.24849     0.84220    
-2.01000     0.75915     1.32759     1.25719     0.83640    
-1.98000     0.79706     1.35562     1.27434     0.82920    
-1.95000     0.85791     1.38825     1.29550     0.82060    
-1.92000     0.86370     1.45126     1.34453     0.81070    
-1.89000     0.87176     1.45709     1.34024     0.79950    
-1.86000     0.88072     1.46073     1.33399     0.78750    
-1.83000     0.84372     1.45334     1.31784     0.77500    
-1.80000     0.77362     1.43801     1.29476     0.76260    
-1.77000     0.76189     1.40990     1.26057     0.75090    
-1.74000     0.80538     1.36970     1.21614     0.74030    
-1.71000     0.82449     1.38418     1.22048     0.73130    
-1.68000     0.81966     1.45241     1.27186     0.72420    
-1.65000     0.84282     1.47712     1.28477     0.71900    
-1.62000     0.92030     1.41734     1.22453     0.71560    
-1.59000     0.94048     1.39160     1.19423     0.71360    
-1.56000     0.89811     1.40566     1.19832     0.71220    
-1.53000     0.86756     1.41058     1.19466     0.71080    
-1.50000     0.85981     1.39838     1.17665     0.70850    
-1.47000     0.86590     1.37542     1.14993     0.70430    
-1.44000     0.90521     1.32650     1.10196     0.69760    
-1.41000     0.90879     1.28227     1.05855     0.68790    
-1.38000     0.87359     1.24691     1.02295     0.67500    
-1.35000     0.84794     1.21551     0.99107     0.65920    
-1.32000     0.84684     1.19433     0.96789     0.64070    
-1.29000     0.84067     1.16146     0.93562     0.62000    
-1.26000     0.82445     1.10550     0.88528     0.59750    
-1.23000     0.83211     1.02666     0.81732     0.57370    
-1.20000     0.86405     0.92456     0.73185     0.54850    
-1.17000     0.89435     0.83877     0.66012     0.52200    
-1.14000     0.91559     0.77120     0.60357     0.49380    
-1.11000     0.89324     0.71900     0.55959     0.46350    
-1.08000     0.86086     0.66853     0.51750     0.43060    
-1.05000     0.87424     0.59105     0.45509     0.39510    
-1.02000     0.88982     0.51740     0.39626     0.35700    
-0.99000     0.88697     0.46355     0.35320     0.31690    
-0.96000     0.89156     0.40803     0.30930     0.27560    
-0.93000     0.94624     0.34129     0.25745     0.23440    
-0.90000     0.95369     0.27510     0.20649     0.19460    
-0.87000     0.93089     0.20927     0.15634     0.15770    
-0.84000     0.92744     0.15398     0.11449     0.12470    
-0.81000     0.97171     0.12470     0.09229     0.09637    
-0.78000     0.97014     0.09870     0.07272     0.07288    
-0.75000     0.89896     0.07271     0.05333     0.05410    
-0.72000     0.86240     0.05094     0.03721     0.03959    
-0.69000     0.84807     0.03177     0.02311     0.02867    
-0.66000     0.86041     0.02014     0.01459     0.02064    
-0.63000     0.90822     0.01871     0.01350     0.01484    
-0.60000     0.93251     0.01272     0.00914     0.01069    
-0.57000     0.95375     0.00997     0.00714     0.00773    
-0.54000     0.93027     0.00913     0.00651     0.00561    
-0.51000     0.87005     0.00839     0.00597     0.00408    
-0.48000     0.83503     0.00769     0.00545     0.00296    
-0.45000     0.87323     0.00599     0.00423     0.00214    
-0.42000     0.87820     0.00513     0.00361     0.00154    
-0.39000     0.86695     0.00455     0.00319     0.00110    
-0.36000     0.84754     0.00391     0.00274     0.00077    
-0.33000     0.82218     0.00331     0.00231     0.00054    
-0.30000     0.82919     0.00257     0.00179     0.00038    
-0.27000     0.85869     0.00210     0.00146     0.00027    
-0.24000     0.87223     0.00148     0.00102     0.00019    
-0.21000     0.86912     0.00115     0.00079     0.00014    
-0.18000     0.87219     0.00098     0.00067     0.00011    
-0.15000     0.88262     0.00078     0.00054     0.00009    
-0.12000     0.90042     0.00062     0.00043     0.00007    
-0.09000     0.91606     0.00051     0.00035     0.00006    
-0.06000     0.90948     0.00044     0.00030     0.00006    
-0.03000     0.89880     0.00042     0.00029     0.00005    
0.00000     0.88749     0.00037     0.00025     0.00005    
0.03000     0.88447     0.00036     0.00024     0.00006    
0.06000     0.88447     0.00034     0.00023     0.00006    
0.09000     0.87042     0.00037     0.00025     0.00007    
0.12000     0.84900     0.00038     0.00026     0.00008    
0.15000     0.85239     0.00036     0.00024     0.00010    
0.18000     0.88406     0.00046     0.00031     0.00014    
0.21000     0.89837     0.00046     0.00031     0.00019    
0.24000     0.90453     0.00057     0.00039     0.00028    
0.27000     0.90579     0.00199     0.00135     0.00045    
0.30000     0.91989     0.00344     0.00233     0.00076    
0.33000     0.95472     0.00413     0.00279     0.00134    
0.36000     0.98376     0.00667     0.00451     0.00247    
0.39000     0.98806     0.01715     0.01161     0.00465    
0.42000     0.98270     0.03325     0.02252     0.00883    
0.45000     0.96103     0.06087     0.04125     0.01660    
0.48000     0.93761     0.09463     0.06417     0.03044    
0.51000     0.90802     0.15001     0.10181     0.05365    
0.54000     0.89514     0.20412     0.13866     0.08984    
0.57000     0.92020     0.25535     0.17365     0.14190    
0.60000     0.94653     0.30649     0.20867     0.21050    
0.63000     0.92427     0.41204     0.28090     0.29320    
0.66000     0.89804     0.52880     0.36103     0.38470    
0.69000     0.91421     0.62452     0.42705     0.47770    
0.72000     0.93526     0.71821     0.49196     0.56520    
0.75000     0.89966     0.84646     0.58085     0.64200    
0.78000     0.85817     0.97820     0.67260     0.70530    
0.81000     0.89277     1.06305     0.73245     0.75450    
0.84000     0.91163     1.18164     0.81600     0.79100    
0.87000     0.87645     1.28368     0.88851     0.81680    
0.90000     0.85450     1.31581     0.91300     0.83440    
0.93000     0.83255     1.34793     0.93772     0.84600    
0.96000     0.84342     1.35085     0.94229     0.85330    
0.99000     0.87281     1.34590     0.94151     0.85790    
1.02000     0.90506     1.37774     0.96662     0.86060    
1.05000     0.93307     1.41182     0.99359     0.86210    
1.08000     0.93379     1.39784     0.98688     0.86300    
1.11000     0.91079     1.38281     0.97952     0.86340    
1.14000     0.85289     1.41012     1.00229     0.86370    
1.17000     0.83242     1.42596     1.01714     0.86380    
1.20000     0.87634     1.42208     1.01808     0.86380    
1.23000     0.89281     1.41805     1.01902     0.86380    
1.26000     0.85344     1.41375     1.01988     0.86380    
1.29000     0.83658     1.40342     1.01646     0.86380    
1.32000     0.84149     1.38728     1.00888     0.86380    
1.35000     0.87509     1.43096     1.04506     0.86370    
1.38000     0.87717     1.43496     1.05248     0.86370    
1.41000     0.86978     1.42351     1.04869     0.86360    
1.44000     0.86417     1.41240     1.04520     0.86350    
1.47000     0.88690     1.40676     1.04584     0.86340    
1.50000     0.90991     1.40896     1.05242     0.86320    
1.53000     0.90081     1.43391     1.07623     0.86300    
1.56000     0.89135     1.45911     1.10052     0.86270    
1.59000     0.88199     1.45841     1.10549     0.86240    
1.62000     0.87273     1.43165     1.09074     0.86210    
1.65000     0.84869     1.43203     1.09672     0.86170    
1.68000     0.81380     1.46260     1.12605     0.86130    
1.71000     0.83208     1.45613     1.12708     0.86100    
1.74000     0.86539     1.43918     1.12005     0.86070    
1.77000     0.87545     1.43352     1.12184     0.86040    
1.80000     0.86293     1.43881     1.13233     0.86020    
1.83000     0.85048     1.43835     1.13843     0.86010    
1.86000     0.83941     1.42312     1.13290     0.86000    
1.89000     0.81150     1.41057     1.12952     0.86000    
1.92000     0.82163     1.43105     1.15274     0.86000    
1.95000     0.84757     1.45945     1.18272     0.86000    
1.98000     0.86162     1.47136     1.19963     0.86000    
2.01000     0.85777     1.45847     1.19647     0.85990    
2.04000     0.84708     1.43691     1.18615     0.85970    
2.07000     0.81598     1.38949     1.15424     0.85940    
2.10000     0.79684     1.38107     1.15462     0.85900    
2.13000     0.79559     1.42676     1.20051     0.85840    
2.16000     0.78332     1.43561     1.21582     0.85770    
2.19000     0.76451     1.42269     1.21282     0.85690    
2.22000     0.74015     1.38661     1.18988     0.85590    
2.25000     0.71584     1.34370     1.16083     0.85490    
2.28000     0.72091     1.39336     1.21192     0.85380    
2.31000     0.73050     1.43756     1.25889     0.85260    
2.34000     0.76510     1.42460     1.25609     0.85120    
2.37000     0.78956     1.39683     1.24014     0.84980    
2.40000     0.78996     1.35455     1.21102     0.84820    
2.43000     0.79524     1.32408     1.19213     0.84640    
2.46000     0.81183     1.31391     1.19137     0.84450    
2.49000     0.81841     1.30219     1.18917     0.84230    
2.52000     0.81841     1.28926     1.18584     0.83990    
2.55000     0.80781     1.27604     1.18217     0.83730    
2.58000     0.76020     1.26176     1.17745     0.83470    
2.61000     0.72168     1.26274     1.18703     0.83190    
2.64000     0.71143     1.30158     1.23258     0.82920    
2.67000     0.70880     1.33015     1.26893     0.82650    
2.70000     0.73514     1.31967     1.26830     0.82410    
2.73000     0.76147     1.30918     1.26765     0.82190    
2.76000     0.73955     1.22227     1.19233     0.82010    
2.79000     0.72073     1.16058     1.14077     0.81870    
2.82000     0.72276     1.20153     1.19005     0.81760    
2.85000     0.73650     1.23899     1.23649     0.81690    
2.88000     0.75757     1.26033     1.26740     0.81660    
2.91000     0.74945     1.23085     1.24724     0.81650    
2.94000     0.72330     1.17095     1.19575     0.81660    
2.97000     0.71326     1.18135     1.21578     0.81690    
3.00000     0.71219     1.23085     1.27654     0.81730    
3.03000     0.71518     1.24431     1.30056     0.81780    
3.06000     0.71751     1.24179     1.30810     0.81830    
3.09000     0.68863     1.25299     1.33027     0.81890    
3.12000     0.66142     1.26164     1.35000     0.81950    
3.15000     0.68345     1.23469     1.33159     0.82010    
3.18000     0.70671     1.20263     1.30728     0.82070    
3.21000     0.67285     1.18976     1.30359     0.82140    
3.24000     0.64140     1.19066     1.31500     0.82210    
3.27000     0.65475     1.20886     1.34574     0.82270    
3.30000     0.65488     1.21058     1.35841     0.82310    
3.33000     0.63851     1.18830     1.34410     0.82330    
3.36000     0.66801     1.18067     1.34621     0.82310    
3.39000     0.68905     1.17690     1.35273     0.82250    
3.42000     0.67659     1.17507     1.36151     0.82130    
3.45000     0.66108     1.15158     1.34500     0.81940    
3.48000     0.64716     1.08335     1.27559     0.81690    
3.51000     0.64379     1.03500     1.22856     0.81370    
3.54000     0.66681     1.04234     1.24730     0.80990    
3.57000     0.68200     1.04830     1.26462     0.80570    
3.60000     0.68200     1.05159     1.27890     0.80120    
3.63000     0.66644     1.04988     1.28720     0.79660    
3.66000     0.62900     1.04113     1.28687     0.79210    
3.69000     0.61871     1.04200     1.29845     0.78800    
3.72000     0.64540     1.05596     1.32660     0.78430    
3.75000     0.67301     1.07184     1.35754     0.78120    
3.78000     0.70225     1.09166     1.39396     0.77890    
3.81000     0.67938     1.08492     1.39662     0.77740    
3.84000     0.61227     1.05547     1.36982     0.77660    
3.87000     0.55233     1.02854     1.34578     0.77650    
3.90000     0.54261     1.01920     1.34451     0.77690    
3.93000     0.54582     1.00877     1.34161     0.77770    
3.96000     0.54784     0.98480     1.32047     0.77860    
3.99000     0.55444     0.96594     1.30579     0.77950    
4.02000     0.58441     0.98058     1.33645     0.78020    
4.05000     0.59574     0.99348     1.36510     0.78060    
4.08000     0.57451     0.99032     1.37190     0.78050    
4.11000     0.56667     1.00124     1.39840     0.77990    
4.14000     0.57576     1.02998     1.45032     0.77870    
4.17000     0.57312     0.97572     1.38509     0.77710    
4.20000     0.56849     0.88747     1.27011     0.77490    
4.23000     0.58476     0.88714     1.28005     0.77220    
4.26000     0.59042     0.89889     1.30760     0.76890    
4.29000     0.56195     0.90101     1.32137     0.76510    
4.32000     0.53712     0.89426     1.32213     0.76050    
4.35000     0.53347     0.83608     1.24615     0.75500    
4.38000     0.52901     0.82673     1.24237     0.74850    
4.41000     0.52510     0.86418     1.30925     0.74090    
4.44000     0.53200     0.89917     1.37328     0.73220    
4.47000     0.53595     0.92264     1.42058     0.72250    
4.50000     0.51902     0.90477     1.40437     0.71190    
4.53000     0.49775     0.87538     1.36976     0.70080    
4.56000     0.48480     0.83047     1.31000     0.68940    
4.59000     0.47783     0.79750     1.26824     0.67840    
4.62000     0.47260     0.80916     1.29720     0.66800    
4.65000     0.46832     0.81858     1.32287     0.65870    
4.68000     0.48963     0.76714     1.24967     0.65090    
4.71000     0.51367     0.71996     1.18235     0.64470    
4.74000     0.52975     0.73536     1.21741     0.64030    
4.77000     0.54744     0.72646     1.21229     0.63770    
4.80000     0.56757     0.68388     1.15039     0.63670    
4.83000     0.58077     0.65018     1.10249     0.63730    
4.86000     0.57120     0.65125     1.11319     0.63910    
4.89000     0.52286     0.64337     1.10845     0.64220    
4.92000     0.45788     0.62327     1.08246     0.64610    
4.95000     0.46301     0.62517     1.09443     0.65100    
4.98000     0.46813     0.62708     1.10651     0.65680    
5.01000     0.47179     0.63546     1.13026     0.66350    
5.04000     0.46895     0.67252     1.20568     0.67110    
5.07000     0.46679     0.70829     1.27981     0.67990    
5.10000     0.47907     0.69295     1.26197     0.68980    
5.13000     0.48029     0.67093     1.23156     0.70080    
5.16000     0.47010     0.65234     1.20687     0.71290    
5.19000     0.46555     0.63772     1.18914     0.72600    
5.22000     0.47551     0.63422     1.19193     0.73970    
5.25000     0.47953     0.64661     1.22476     0.75380    
5.28000     0.47793     0.66338     1.26635     0.76800    
5.31000     0.46870     0.65379     1.25779     0.78180    
5.34000     0.45923     0.64500     1.25061     0.79480    
5.37000     0.45609     0.67993     1.32870     0.80680    
5.40000     0.45734     0.72056     1.41894     0.81760    
5.43000     0.46231     0.71316     1.41527     0.82700    
5.46000     0.44964     0.70487     1.40966     0.83490    
5.49000     0.42259     0.69585     1.40239     0.84140    
5.52000     0.42276     0.70898     1.43995     0.84660    
5.55000     0.45191     0.74384     1.52236     0.85070    
5.58000     0.46021     0.74601     1.53851     0.85370    
5.61000     0.45704     0.73143     1.52004     0.85590    
5.64000     0.45068     0.72692     1.52225     0.85750    
5.67000     0.43908     0.72334     1.52634     0.85860    
5.70000     0.40832     0.68541     1.45726     0.85940    
5.73000     0.39972     0.66890     1.43307     0.85990    
5.76000     0.41317     0.67397     1.45492     0.86020    
5.79000     0.42737     0.67978     1.47858     0.86040    
5.82000     0.43207     0.68482     1.50082     0.86060    
5.85000     0.42409     0.69023     1.52411     0.86070    
5.88000     0.40555     0.70111     1.55980     0.86090    
5.91000     0.38748     0.70576     1.58194     0.86100    
5.94000     0.37766     0.69079     1.56001     0.86120    
5.97000     0.37019     0.67465     1.53497     0.86140    
6.00000     0.37490     0.67192     1.54020     0.86160    
6.03000     0.38744     0.67631     1.56183     0.86180    
6.06000     0.41404     0.67805     1.57749     0.86200    
6.09000     0.44096     0.67371     1.57900     0.86220    
6.12000     0.40490     0.63871     1.50802     0.86240    
6.15000     0.36884     0.60372     1.43600     0.86260    
6.18000     0.35433     0.65209     1.56260     0.86280    
6.21000     0.34665     0.68975     1.66493     0.86300    
6.24000     0.37632     0.66644     1.62040     0.86320    
6.27000     0.38830     0.63960     1.56654     0.86340    
6.30000     0.33790     0.61762     1.52378     0.86350    
6.33000     0.29432     0.61440     1.52696     0.86360    
6.36000     0.28584     0.65118     1.63011     0.86370    
6.39000     0.31802     0.67275     1.69630     0.86380    
6.42000     0.38714     0.65809     1.67136     0.86390    
6.45000     0.36369     0.65802     1.68329     0.86390    
6.48000     0.33720     0.65848     1.69660     0.86390    
6.51000     0.31295     0.65541     1.70080     0.86390    
6.54000     0.30718     0.62319     1.62875     0.86390    
6.57000     0.29845     0.56432     1.48552     0.86390    
6.60000     0.30418     0.55013     1.45849     0.86390    
6.63000     0.31386     0.55132     1.47210     0.86380    
6.66000     0.32712     0.56644     1.52323     0.86380    
6.69000     0.34015     0.57267     1.55089     0.86380    
6.72000     0.35213     0.53745     1.46573     0.86370    
6.75000     0.34442     0.52276     1.43582     0.86370    
6.78000     0.30616     0.54447     1.50600     0.86360    
6.81000     0.28864     0.55052     1.53336     0.86360    
6.84000     0.30692     0.52785     1.48054     0.86350    
6.87000     0.32003     0.51785     1.46271     0.86350    
6.90000     0.31809     0.53690     1.52705     0.86350    
6.93000     0.30963     0.55360     1.58553     0.86340    
6.96000     0.28242     0.55607     1.60363     0.86340    
6.99000     0.26359     0.55279     1.60520     0.86330    
7.02000     0.27714     0.54039     1.58004     0.86330    
7.05000     0.28894     0.53090     1.56301     0.86320    
7.08000     0.29450     0.53173     1.57620     0.86320    
7.11000     0.29423     0.53146     1.58622     0.86320    
7.14000     0.28050     0.52868     1.58871     0.86310    
7.17000     0.26961     0.51624     1.56192     0.86310    
7.20000     0.26061     0.49738     1.51506     0.86310    
7.23000     0.25162     0.47846     1.46733     0.86310    
7.26000     0.26751     0.47706     1.47300     0.86310    
7.29000     0.28259     0.48391     1.50429     0.86310    
7.32000     0.25435     0.50186     1.57061     0.86310    
7.35000     0.23591     0.51202     1.61314     0.86310    
7.38000     0.25007     0.50502     1.60176     0.86310    
7.41000     0.25927     0.49129     1.56862     0.86300    
7.44000     0.26505     0.47342     1.52166     0.86300    
7.47000     0.26201     0.45990     1.48806     0.86300    
7.50000     0.24740     0.45645     1.48672     0.86290    
7.53000     0.23670     0.45981     1.50760     0.86290    
7.56000     0.23209     0.46342     1.52949     0.86280    
7.59000     0.25687     0.46413     1.54195     0.86280    
7.62000     0.25943     0.45779     1.53083     0.86270    
7.65000     0.21465     0.44155     1.48625     0.86270    
7.68000     0.19941     0.43286     1.46656     0.86260    
7.71000     0.22139     0.43367     1.47892     0.86260    
7.74000     0.23169     0.43178     1.48204     0.86260    
7.77000     0.23046     0.42720     1.47586     0.86260    
7.80000     0.21862     0.40714     1.41564     0.86260    
7.83000     0.20551     0.38460     1.34592     0.86260    
7.86000     0.22142     0.39485     1.39076     0.86260    
7.89000     0.23971     0.41000     1.45341     0.86260    
7.92000     0.22788     0.39867     1.42231     0.86260    
7.95000     0.21498     0.38973     1.39933     0.86260    
7.98000     0.20491     0.38497     1.39107     0.86270    
8.01000     0.20263     0.38359     1.39493     0.86270    
8.04000     0.21588     0.38896     1.42347     0.86280    
8.07000     0.22593     0.39687     1.46161     0.86290    
8.10000     0.23351     0.40674     1.50744     0.86300    
8.13000     0.23735     0.40667     1.51669     0.86320    
8.16000     0.23378     0.38697     1.45222     0.86330    
8.19000     0.22935     0.37108     1.40139     0.86340    
8.22000     0.22057     0.38183     1.45106     0.86360    
8.25000     0.21133     0.39113     1.49569     0.86370    
8.28000     0.20227     0.37301     1.43522     0.86380    
8.31000     0.19224     0.35185     1.36223     0.86380    
8.34000     0.17254     0.35592     1.38659     0.86390    
8.37000     0.16396     0.36440     1.42840     0.86390    
8.40000     0.20080     0.35993     1.41959     0.86390    
8.43000     0.20796     0.35639     1.41429     0.86380    
8.46000     0.20090     0.35414     1.41399     0.86380    
8.49000     0.20030     0.36184     1.45363     0.86370    
8.52000     0.20368     0.37566     1.51838     0.86360    
8.55000     0.20430     0.38424     1.56243     0.86350    
8.58000     0.18827     0.35039     1.43345     0.86340    
8.61000     0.20742     0.34114     1.40414     0.86330    
8.64000     0.22143     0.33243     1.37650     0.86310    
8.67000     0.19554     0.30715     1.27953     0.86300    
8.70000     0.17727     0.31177     1.30671     0.86280    
8.73000     0.16782     0.32953     1.38942     0.86260    
8.76000     0.18146     0.31965     1.35578     0.86240    
8.79000     0.19165     0.31184     1.33059     0.86220    
8.82000     0.18430     0.32041     1.37533     0.86200    
8.85000     0.17676     0.32495     1.40308     0.86170    
8.88000     0.17191     0.32194     1.39838     0.86150    
8.91000     0.16807     0.31711     1.38551     0.86130    
8.94000     0.17069     0.30057     1.32098     0.86120    
8.97000     0.17505     0.28274     1.24998     0.86110    
9.00000     0.17206     0.29217     1.29936     0.86100    
9.03000     0.16583     0.31061     1.38939     0.86090    
9.06000     0.15379     0.31565     1.42023     0.86090    
9.09000     0.14113     0.31927     1.44489     0.86090    
9.12000     0.16996     0.32001     1.45668     0.86090    
9.15000     0.20348     0.31775     1.45475     0.86090    
9.18000     0.18018     0.29406     1.35403     0.86100    
9.21000     0.16368     0.28090     1.30102     0.86110    
9.24000     0.16791     0.28965     1.34927     0.86120    
9.27000     0.16723     0.30379     1.42334     0.86130    
9.30000     0.15345     0.32311     1.52248     0.86150    
9.33000     0.14362     0.31941     1.51361     0.86160    
9.36000     0.13609     0.30573     1.45711     0.86180    
9.39000     0.13296     0.29109     1.39520     0.86200    
9.42000     0.14290     0.27358     1.31875     0.86210    
9.45000     0.15108     0.25929     1.25697     0.86230    
9.48000     0.15002     0.25691     1.25251     0.86250    
9.51000     0.14653     0.25650     1.25757     0.86260    
9.54000     0.13443     0.26304     1.29691     0.86270    
9.57000     0.13185     0.26709     1.32425     0.86270    
9.60000     0.14928     0.26647     1.32860     0.86270    
9.63000     0.14548     0.27433     1.37544     0.86260    
9.66000     0.13699     0.28254     1.42453     0.86240    
9.69000     0.14051     0.27920     1.41547     0.86210    
9.72000     0.14655     0.27336     1.39356     0.86170    
9.75000     0.14919     0.26973     1.38271     0.86120    
9.78000     0.14936     0.26786     1.38070     0.86060    
9.81000     0.15223     0.26660     1.38181     0.85990    
9.84000     0.15147     0.25634     1.33595     0.85910    
9.87000     0.14823     0.24081     1.26185     0.85820    
9.90000     0.14271     0.23985     1.26375     0.85730    
9.93000     0.13660     0.24660     1.30638     0.85630    
9.96000     0.13740     0.23869     1.27137     0.85520    
9.99000     0.13847     0.22713     1.21639     0.85400    
10.02000     0.12506     0.23069     1.24216     0.85270    
10.05000     0.11208     0.23457     1.26988     0.85130    
10.08000     0.11409     0.24982     1.35981     0.84980    
10.11000     0.11826     0.26246     1.43628     0.84820    
10.14000     0.12639     0.25385     1.39660     0.84640    
10.17000     0.13677     0.24431     1.35133     0.84460    
10.20000     0.15047     0.23512     1.30743     0.84270    
10.23000     0.16444     0.22595     1.26316     0.84070    
10.26000     0.15806     0.21955     1.23391     0.83870    
10.29000     0.14373     0.21422     1.21035     0.83670    
10.32000     0.13386     0.21005     1.19309     0.83470    
10.35000     0.13235     0.20830     1.18943     0.83280    
10.38000     0.12903     0.20927     1.20126     0.83100    
10.41000     0.12559     0.21087     1.21683     0.82930    
10.44000     0.12978     0.20542     1.19157     0.82780    
10.47000     0.13201     0.20075     1.17063     0.82640    
10.50000     0.11073     0.21393     1.25405     0.82520    
10.53000     0.09956     0.22151     1.30522     0.82420    
10.56000     0.10331     0.22081     1.30787     0.82330    
10.59000     0.10730     0.21820     1.29910     0.82260    
10.62000     0.11238     0.20638     1.23507     0.82210    
10.65000     0.11626     0.19406     1.16736     0.82180    
10.68000     0.11387     0.18284     1.10558     0.82170    
10.71000     0.11109     0.18923     1.15012     0.82180    
10.74000     0.11038     0.20400     1.24624     0.82210    
10.77000     0.12799     0.20516     1.25976     0.82270    
10.80000     0.14576     0.20586     1.27049     0.82360    
10.83000     0.11334     0.19968     1.23865     0.82470    
10.86000     0.08255     0.19303     1.20346     0.82610    
10.89000     0.09402     0.18576     1.16405     0.82770    
10.92000     0.10742     0.17995     1.13334     0.82960    
10.95000     0.11719     0.17737     1.12277     0.83150    
10.98000     0.11262     0.18244     1.16070     0.83330    
11.01000     0.10134     0.19092     1.22076     0.83500    
11.04000     0.10522     0.18981     1.21975     0.83630    
11.07000     0.11040     0.18789     1.21345     0.83710    
11.10000     0.11065     0.18565     1.20500     0.83700    
11.13000     0.10609     0.18311     1.19444     0.83580    
11.16000     0.10443     0.18640     1.22198     0.83330    
11.19000     0.10332     0.19048     1.25487     0.82940    
11.22000     0.09977     0.18892     1.25077     0.82380    
11.25000     0.09589     0.18661     1.24160     0.81660    
11.28000     0.09139     0.18429     1.23222     0.80770    
11.31000     0.08615     0.18195     1.22257     0.79730    
11.34000     0.08810     0.17920     1.20996     0.78550    
11.37000     0.09884     0.17593     1.19372     0.77270    
11.40000     0.09772     0.16585     1.13082     0.75910    
11.43000     0.08532     0.15054     1.03144     0.74500    
11.46000     0.07649     0.14918     1.02718     0.73070    
11.49000     0.07047     0.15589     1.07817     0.71620    
11.52000     0.07047     0.15589     1.07817     0.70170    
11.55000     0.07047     0.15589     1.07817     0.68720    
11.58000     0.07047     0.15589     1.07817     0.67260    
11.61000     0.07047     0.15589     1.07817     0.65780    
11.64000     0.07047     0.15589     1.07817     0.64270    
11.67000     0.07047     0.15589     1.07817     0.62730    
11.70000     0.07047     0.15589     1.07817     0.61160    
11.73000     0.07047     0.15589     1.07817     0.59570    
11.76000     0.07047     0.15589     1.07817     0.57990    
11.79000     0.07047     0.15589     1.07817     0.56440    
11.82000     0.07047     0.15589     1.07817     0.54940    
11.85000     0.07047     0.15589     1.07817     0.53530    
11.88000     0.07047     0.15589     1.07817     0.52220    
11.91000     0.07047     0.15589     1.07817     0.51020    
11.94000     0.07047     0.15589     1.07817     0.49930    
11.97000     0.07047     0.15589     1.07817     0.48940    
12.00000     0.07047     0.15589     1.07817     0.48050    
12.03000     0.07047     0.15589     1.07817     0.47230    
12.06000     0.07047     0.15589     1.07817     0.46480    
12.09000     0.07047     0.15589     1.07817     0.45780    
12.12000     0.07047     0.15589     1.07817     0.45130    
12.15000     0.07047     0.15589     1.07817     0.44540    
12.18000     0.07047     0.15589     1.07817     0.44030    
12.21000     0.07047     0.15589     1.07817     0.43620    
12.24000     0.07047     0.15589     1.07817     0.43320    
12.27000     0.07047     0.15589     1.07817     0.43170    
12.30000     0.07047     0.15589     1.07817     0.43170    
12.33000     0.07047     0.15589     1.07817     0.43320    
12.36000     0.07047     0.15589     1.07817     0.43620    
12.39000     0.07047     0.15589     1.07817     0.44040    
12.42000     0.07047     0.15589     1.07817     0.44550    
12.45000     0.07047     0.15589     1.07817     0.45100    
12.48000     0.07047     0.15589     1.07817     0.45650    
12.51000     0.07047     0.15589     1.07817     0.46140    
12.54000     0.07047     0.15589     1.07817     0.46540    
12.57000     0.07047     0.15589     1.07817     0.46820    
12.60000     0.07047     0.15589     1.07817     0.46970    
12.63000     0.07047     0.15589     1.07817     0.47010    
12.66000     0.07047     0.15589     1.07817     0.46950    
12.69000     0.07047     0.15589     1.07817     0.46820    
12.72000     0.07047     0.15589     1.07817     0.46650    
12.75000     0.07047     0.15589     1.07817     0.46470    
12.78000     0.07047     0.15589     1.07817     0.46300    
12.81000     0.07047     0.15589     1.07817     0.46170    
12.84000     0.07047     0.15589     1.07817     0.46090    
12.87000     0.07047     0.15589     1.07817     0.46060    
12.90000     0.07047     0.15589     1.07817     0.46110    
12.93000     0.07047     0.15589     1.07817     0.46240    
12.96000     0.07047     0.15589     1.07817     0.46460    
12.99000     0.07047     0.15589     1.07817     0.46810    
13.02000     0.07047     0.15589     1.07817     0.47290    
13.05000     0.07047     0.15589     1.07817     0.47930    
13.08000     0.07047     0.15589     1.07817     0.48770    
13.11000     0.07047     0.15589     1.07817     0.49820    
13.14000     0.07047     0.15589     1.07817     0.51090    
13.17000     0.07047     0.15589     1.07817     0.52600    
13.20000     0.07047     0.15589     1.07817     0.54330    
13.23000     0.07047     0.15589     1.07817     0.56270    
13.26000     0.07047     0.15589     1.07817     0.58370    
13.29000     0.07047     0.15589     1.07817     0.60600    
13.32000     0.07047     0.15589     1.07817     0.62900    
13.35000     0.07047     0.15589     1.07817     0.65200    
13.38000     0.07047     0.15589     1.07817     0.67440    
13.41000     0.07047     0.15589     1.07817     0.69560    
13.44000     0.07047     0.15589     1.07817     0.71510    
13.47000     0.07047     0.15589     1.07817     0.73260    
13.50000     0.07047     0.15589     1.07817     0.74800    
13.53000     0.07047     0.15589     1.07817     0.76130    
13.56000     0.07047     0.15589     1.07817     0.77240    
13.59000     0.07047     0.15589     1.07817     0.78170    
13.62000     0.07047     0.15589     1.07817     0.78940    
13.65000     0.07047     0.15589     1.07817     0.79580    
13.68000     0.07047     0.15589     1.07817     0.80100    
13.71000     0.07047     0.15589     1.07817     0.80530    
13.74000     0.07047     0.15589     1.07817     0.80900    
13.77000     0.07047     0.15589     1.07817     0.81210    
13.80000     0.07047     0.15589     1.07817     0.81490    
13.83000     0.07047     0.15589     1.07817     0.81750    
13.86000     0.07047     0.15589     1.07817     0.81980    
13.89000     0.07047     0.15589     1.07817     0.82220    
13.92000     0.07047     0.15589     1.07817     0.82450    
13.95000     0.07047     0.15589     1.07817     0.82690    
13.98000     0.07047     0.15589     1.07817     0.82940    
14.01000     0.07047     0.15589     1.07817     0.83180    
14.04000     0.07047     0.15589     1.07817     0.83430    
14.07000     0.07047     0.15589     1.07817     0.83670    
14.10000     0.07047     0.15589     1.07817     0.83900    
14.13000     0.07047     0.15589     1.07817     0.84100    
14.16000     0.07047     0.15589     1.07817     0.84280    
14.19000     0.07047     0.15589     1.07817     0.84420    
14.22000     0.07047     0.15589     1.07817     0.84530    
14.25000     0.07047     0.15589     1.07817     0.84590    
14.28000     0.07047     0.15589     1.07817     0.84620    
14.31000     0.07047     0.15589     1.07817     0.84610    
14.34000     0.07047     0.15589     1.07817     0.84570    
14.37000     0.07047     0.15589     1.07817     0.84500    
14.40000     0.07047     0.15589     1.07817     0.84410    
14.43000     0.07047     0.15589     1.07817     0.84300    
14.46000     0.07047     0.15589     1.07817     0.84170    
14.49000     0.07047     0.15589     1.07817     0.84020    
14.52000     0.07047     0.15589     1.07817     0.83860    
14.55000     0.07047     0.15589     1.07817     0.83680    
14.58000     0.07047     0.15589     1.07817     0.83480    
14.61000     0.07047     0.15589     1.07817     0.83280    
14.64000     0.07047     0.15589     1.07817     0.83060    
14.67000     0.07047     0.15589     1.07817     0.82850    
14.70000     0.07047     0.15589     1.07817     0.82640    
14.73000     0.07047     0.15589     1.07817     0.82430    
14.76000     0.07047     0.15589     1.07817     0.82250    
14.79000     0.07047     0.15589     1.07817     0.82080    
14.82000     0.07047     0.15589     1.07817     0.81950    
14.85000     0.07047     0.15589     1.07817     0.81840    
14.88000     0.07047     0.15589     1.07817     0.81760    
14.91000     0.07047     0.15589     1.07817     0.81700    
14.94000     0.07047     0.15589     1.07817     0.81680    
14.97000     0.07047     0.15589     1.07817     0.81670    
15.00000     0.07047     0.15589     1.07817     0.81690    
15.03000     0.07047     0.15589     1.07817     0.81730    
15.06000     0.07047     0.15589     1.07817     0.81790    
15.09000     0.07047     0.15589     1.07817     0.81870    
15.12000     0.07047     0.15589     1.07817     0.81980    
15.15000     0.07047     0.15589     1.07817     0.82110    
15.18000     0.07047     0.15589     1.07817     0.82270    
15.21000     0.07047     0.15589     1.07817     0.82460    
15.24000     0.07047     0.15589     1.07817     0.82680    
15.27000     0.07047     0.15589     1.07817     0.82940    
15.30000     0.07047     0.15589     1.07817     0.83220    
15.33000     0.07047     0.15589     1.07817     0.83520    
15.36000     0.07047     0.15589     1.07817     0.83830    
15.39000     0.07047     0.15589     1.07817     0.84150    
15.42000     0.07047     0.15589     1.07817     0.84470    
15.45000     0.07047     0.15589     1.07817     0.84780    
15.48000     0.07047     0.15589     1.07817     0.85060    
15.51000     0.07047     0.15589     1.07817     0.85320    
15.54000     0.07047     0.15589     1.07817     0.85560    
15.57000     0.07047     0.15589     1.07817     0.85760    
15.60000     0.07047     0.15589     1.07817     0.85930    
15.63000     0.07047     0.15589     1.07817     0.86070    
15.66000     0.07047     0.15589     1.07817     0.86180    
15.69000     0.07047     0.15589     1.07817     0.86270    
15.72000     0.07047     0.15589     1.07817     0.86330    
15.75000     0.07047     0.15589     1.07817     0.86380    
15.78000     0.07047     0.15589     1.07817     0.86420    
15.81000     0.07047     0.15589     1.07817     0.86440    
15.84000     0.07047     0.15589     1.07817     0.86460    
15.87000     0.07047     0.15589     1.07817     0.86470    
15.90000     0.07047     0.15589     1.07817     0.86480    
15.93000     0.07047     0.15589     1.07817     0.86480    
15.96000     0.07047     0.15589     1.07817     0.86480    
15.99000     0.07047     0.15589     1.07817     0.86480    
16.02000     0.07047     0.15589     1.07817     0.86490    
16.05000     0.07047     0.15589     1.07817     0.86490    
16.08000     0.07047     0.15589     1.07817     0.86490    
16.11000     0.07047     0.15589     1.07817     0.86490    
16.14000     0.07047     0.15589     1.07817     0.86490    
16.17000     0.07047     0.15589     1.07817     0.86490    
16.20000     0.07047     0.15589     1.07817     0.86490    
16.23000     0.07047     0.15589     1.07817     0.86490    
16.26000     0.07047     0.15589     1.07817     0.86490    
16.29000     0.07047     0.15589     1.07817     0.86490    
16.32000     0.07047     0.15589     1.07817     0.86490    
16.35000     0.07047     0.15589     1.07817     0.86490    
16.38000     0.07047     0.15589     1.07817     0.86490    
16.41000     0.07047     0.15589     1.07817     0.86490    
16.44000     0.07047     0.15589     1.07817     0.86490    
16.47000     0.07047     0.15589     1.07817     0.86490    
16.50000     0.07047     0.15589     1.07817     0.86490    
16.53000     0.07047     0.15589     1.07817     0.86490    
16.56000     0.07047     0.15589     1.07817     0.86490    
16.59000     0.07047     0.15589     1.07817     0.86490    
16.62000     0.07047     0.15589     1.07817     0.86490    
16.65000     0.07047     0.15589     1.07817     0.86490    
16.68000     0.07047     0.15589     1.07817     0.86490    
16.71000     0.07047     0.15589     1.07817     0.86490    
16.74000     0.07047     0.15589     1.07817     0.86490    
16.77000     0.07047     0.15589     1.07817     0.86490    
16.80000     0.07047     0.15589     1.07817     0.86490    
16.83000     0.07047     0.15589     1.07817     0.86490    
16.86000     0.07047     0.15589     1.07817     0.86490    
16.89000     0.07047     0.15589     1.07817     0.86490    
16.92000     0.07047     0.15589     1.07817     0.86490    
16.95000     0.07047     0.15589     1.07817     0.86490    
16.98000     0.07047     0.15589     1.07817     0.86490    
17.01000     0.07047     0.15589     1.07817     0.86490    
17.04000     0.07047     0.15589     1.07817     0.86490    
17.07000     0.07047     0.15589     1.07817     0.86490    
17.10000     0.07047     0.15589     1.07817     0.86490    
17.13000     0.07047     0.15589     1.07817     0.86490    
17.16000     0.07047     0.15589     1.07817     0.86490    
17.19000     0.07047     0.15589     1.07817     0.86490    
17.22000     0.07047     0.15589     1.07817     0.86490    
17.25000     0.07047     0.15589     1.07817     0.86490    
17.28000     0.07047     0.15589     1.07817     0.86490    
17.31000     0.07047     0.15589     1.07817     0.86490    
17.34000     0.07047     0.15589     1.07817     0.86490    
17.37000     0.07047     0.15589     1.07817     0.86490    
17.40000     0.07047     0.15589     1.07817     0.86490    
17.43000     0.07047     0.15589     1.07817     0.86490    
17.46000     0.07047     0.15589     1.07817     0.86490    
17.49000     0.07047     0.15589     1.07817     0.86490    
17.52000     0.07047     0.15589     1.07817     0.86490    
17.55000     0.07047     0.15589     1.07817     0.86490    
17.58000     0.07047     0.15589     1.07817     0.86490    
17.61000     0.07047     0.15589     1.07817     0.86490    
17.64000     0.07047     0.15589     1.07817     0.86490    
17.67000     0.07047     0.15589     1.07817     0.86490    
17.70000     0.07047     0.15589     1.07817     0.86490    
17.73000     0.07047     0.15589     1.07817     0.86490    
17.76000     0.07047     0.15589     1.07817     0.86490    
17.79000     0.07047     0.15589     1.07817     0.86490    
17.82000     0.07047     0.15589     1.07817     0.86490    
17.85000     0.07047     0.15589     1.07817     0.86490    
17.88000     0.07047     0.15589     1.07817     0.86490    
17.91000     0.07047     0.15589     1.07817     0.86490    
17.94000     0.07047     0.15589     1.07817     0.86490    
17.97000     0.07047     0.15589     1.07817     0.86490    
18.00000     0.07047     0.15589     1.07817     0.86490    
18.03000     0.07047     0.15589     1.07817     0.86490    
18.06000     0.07047     0.15589     1.07817     0.86490    
18.09000     0.07047     0.15589     1.07817     0.86490    
18.12000     0.07047     0.15589     1.07817     0.86490    
18.15000     0.07047     0.15589     1.07817     0.86490    
18.18000     0.07047     0.15589     1.07817     0.86490    
18.21000     0.07047     0.15589     1.07817     0.86490    
18.24000     0.07047     0.15589     1.07817     0.86490    
18.27000     0.07047     0.15589     1.07817     0.86490    
18.30000     0.07047     0.15589     1.07817     0.86490    
18.33000     0.07047     0.15589     1.07817     0.86490    
18.36000     0.07047     0.15589     1.07817     0.86490    
18.39000     0.07047     0.15589     1.07817     0.86490    
18.42000     0.07047     0.15589     1.07817     0.86490    
18.45000     0.07047     0.15589     1.07817     0.86490    
18.48000     0.07047     0.15589     1.07817     0.86490    
18.51000     0.07047     0.15589     1.07817     0.86490    
18.54000     0.07047     0.15589     1.07817     0.86490    
18.57000     0.07047     0.15589     1.07817     0.86490    
18.60000     0.07047     0.15589     1.07817     0.86490    
18.63000     0.07047     0.15589     1.07817     0.86490    
18.66000     0.07047     0.15589     1.07817     0.86490    
18.69000     0.07047     0.15589     1.07817     0.86490    
18.72000     0.07047     0.15589     1.07817     0.86490    
18.75000     0.07047     0.15589     1.07817     0.86490    
18.78000     0.07047     0.15589     1.07817     0.86490    
18.81000     0.07047     0.15589     1.07817     0.86490    
18.84000     0.07047     0.15589     1.07817     0.86490    
18.87000     0.07047     0.15589     1.07817     0.86490    
18.90000     0.07047     0.15589     1.07817     0.86490    
18.93000     0.07047     0.15589     1.07817     0.86490    
18.96000     0.07047     0.15589     1.07817     0.86490    
18.99000     0.07047     0.15589     1.07817     0.86490    
19.02000     0.07047     0.15589     1.07817     0.86490    
19.05000     0.07047     0.15589     1.07817     0.86490    
19.08000     0.07047     0.15589     1.07817     0.86490    
19.11000     0.07047     0.15589     1.07817     0.86490    
19.14000     0.07047     0.15589     1.07817     0.86490    
19.17000     0.07047     0.15589     1.07817     0.86490    
19.20000     0.07047     0.15589     1.07817     0.86490    
19.23000     0.07047     0.15589     1.07817     0.86490    
19.26000     0.07047     0.15589     1.07817     0.86490    
19.29000     0.07047     0.15589     1.07817     0.86490    
19.32000     0.07047     0.15589     1.07817     0.86490    
19.35000     0.07047     0.15589     1.07817     0.86490    
19.38000     0.07047     0.15589     1.07817     0.86490    
19.41000     0.07047     0.15589     1.07817     0.86490    
19.44000     0.07047     0.15589     1.07817     0.86490    
19.47000     0.07047     0.15589     1.07817     0.86490    
19.50000     0.07047     0.15589     1.07817     0.86490    
19.53000     0.07047     0.15589     1.07817     0.86490    
19.56000     0.07047     0.15589     1.07817     0.86490    
19.59000     0.07047     0.15589     1.07817     0.86490    
19.62000     0.07047     0.15589     1.07817     0.86490    
19.65000     0.07047     0.15589     1.07817     0.86490    
19.68000     0.07047     0.15589     1.07817     0.86490    
19.71000     0.07047     0.15589     1.07817     0.86490    
19.74000     0.07047     0.15589     1.07817     0.86490    
19.77000     0.07047     0.15589     1.07817     0.86490    
19.80000     0.07047     0.15589     1.07817     0.86490    
19.83000     0.07047     0.15589     1.07817     0.86490    
19.86000     0.07047     0.15589     1.07817     0.86490    
19.89000     0.07047     0.15589     1.07817     0.86490    
19.92000     0.07047     0.15589     1.07817     0.86490    
19.95000     0.07047     0.15589     1.07817     0.86490    
19.98000     0.07047     0.15589     1.07817     0.86490    
20.01000     0.07047     0.15589     1.07817     0.86490    
20.04000     0.07047     0.15589     1.07817     0.86490    
20.07000     0.07047     0.15589     1.07817     0.86490    
20.10000     0.07047     0.15589     1.07817     0.86490    
20.13000     0.07047     0.15589     1.07817     0.86490    
20.16000     0.07047     0.15589     1.07817     0.86490    
20.19000     0.07047     0.15589     1.07817     0.86490    
20.22000     0.07047     0.15589     1.07817     0.86490    
20.25000     0.07047     0.15589     1.07817     0.86490    
20.28000     0.07047     0.15589     1.07817     0.86490    
20.31000     0.07047     0.15589     1.07817     0.86490    
20.34000     0.07047     0.15589     1.07817     0.86490    
20.37000     0.07047     0.15589     1.07817     0.86490    
20.40000     0.07047     0.15589     1.07817     0.86490    
20.43000     0.07047     0.15589     1.07817     0.86490    
20.46000     0.07047     0.15589     1.07817     0.86490    
20.49000     0.07047     0.15589     1.07817     0.86490    
20.52000     0.07047     0.15589     1.07817     0.86490    
20.55000     0.07047     0.15589     1.07817     0.86490    
20.58000     0.07047     0.15589     1.07817     0.86490    
20.61000     0.07047     0.15589     1.07817     0.86490    
20.64000     0.07047     0.15589     1.07817     0.86490    
20.67000     0.07047     0.15589     1.07817     0.86490    
20.70000     0.07047     0.15589     1.07817     0.86490    
20.73000     0.07047     0.15589     1.07817     0.86490    
20.76000     0.07047     0.15589     1.07817     0.86490    
20.79000     0.07047     0.15589     1.07817     0.86490    
20.82000     0.07047     0.15589     1.07817     0.86490    
20.85000     0.07047     0.15589     1.07817     0.86490    
20.88000     0.07047     0.15589     1.07817     0.86490    
20.91000     0.07047     0.15589     1.07817     0.86490    
20.94000     0.07047     0.15589     1.07817     0.86490    
20.97000     0.07047     0.15589     1.07817     0.86490    
21.00000     0.07047     0.15589     1.07817     0.86490    
21.03000     0.07047     0.15589     1.07817     0.86490    
21.06000     0.07047     0.15589     1.07817     0.86490    
21.09000     0.07047     0.15589     1.07817     0.86490    
21.12000     0.07047     0.15589     1.07817     0.86490    
21.15000     0.07047     0.15589     1.07817     0.86490    
21.18000     0.07047     0.15589     1.07817     0.86490    
21.21000     0.07047     0.15589     1.07817     0.86490    
21.24000     0.07047     0.15589     1.07817     0.86490    
21.27000     0.07047     0.15589     1.07817     0.86490    
21.30000     0.07047     0.15589     1.07817     0.86490    
21.33000     0.07047     0.15589     1.07817     0.86490    
21.36000     0.07047     0.15589     1.07817     0.86490    
21.39000     0.07047     0.15589     1.07817     0.86490    
21.42000     0.07047     0.15589     1.07817     0.86490    
21.45000     0.07047     0.15589     1.07817     0.86490    
21.48000     0.07047     0.15589     1.07817     0.86490    
21.51000     0.07047     0.15589     1.07817     0.86490    
21.54000     0.07047     0.15589     1.07817     0.86490    
21.57000     0.07047     0.15589     1.07817     0.86490    
21.60000     0.07047     0.15589     1.07817     0.86490    
21.63000     0.07047     0.15589     1.07817     0.86490    
21.66000     0.07047     0.15589     1.07817     0.86490    
21.69000     0.07047     0.15589     1.07817     0.86490    
21.72000     0.07047     0.15589     1.07817     0.86490    
21.75000     0.07047     0.15589     1.07817     0.86490    
21.78000     0.07047     0.15589     1.07817     0.86490    
21.81000     0.07047     0.15589     1.07817     0.86490    
21.84000     0.07047     0.15589     1.07817     0.86490    
21.87000     0.07047     0.15589     1.07817     0.86490    
21.90000     0.07047     0.15589     1.07817     0.86490    
21.93000     0.07047     0.15589     1.07817     0.86490    
21.96000     0.07047     0.15589     1.07817     0.86490    
21.99000     0.07047     0.15589     1.07817     0.86490    
22.02000     0.07047     0.15589     1.07817     0.86490    
22.05000     0.07047     0.15589     1.07817     0.86490    
22.08000     0.07047     0.15589     1.07817     0.86490    
22.11000     0.07047     0.15589     1.07817     0.86490    
22.14000     0.07047     0.15589     1.07817     0.86490    
22.17000     0.07047     0.15589     1.07817     0.86490    
22.20000     0.07047     0.15589     1.07817     0.86490    
22.23000     0.07047     0.15589     1.07817     0.86490    
22.26000     0.07047     0.15589     1.07817     0.86490    
22.29000     0.07047     0.15589     1.07817     0.86490    
22.32000     0.07047     0.15589     1.07817     0.86490    
22.35000     0.07047     0.15589     1.07817     0.86490    
22.38000     0.07047     0.15589     1.07817     0.86490    
22.41000     0.07047     0.15589     1.07817     0.86490    
22.44000     0.07047     0.15589     1.07817     0.86490    
22.47000     0.07047     0.15589     1.07817     0.86490    
22.50000     0.07047     0.15589     1.07817     0.86490    
22.53000     0.07047     0.15589     1.07817     0.86490    
22.56000     0.07047     0.15589     1.07817     0.86490    
22.59000     0.07047     0.15589     1.07817     0.86490    
22.62000     0.07047     0.15589     1.07817     0.86490    
22.65000     0.07047     0.15589     1.07817     0.86490    
22.68000     0.07047     0.15589     1.07817     0.86490    
22.71000     0.07047     0.15589     1.07817     0.86490    
22.74000     0.07047     0.15589     1.07817     0.86490    
22.77000     0.07047     0.15589     1.07817     0.86490    
22.80000     0.07047     0.15589     1.07817     0.86490    
22.83000     0.07047     0.15589     1.07817     0.86490    
22.86000     0.07047     0.15589     1.07817     0.86490    
22.89000     0.07047     0.15589     1.07817     0.86490    
22.92000     0.07047     0.15589     1.07817     0.86490    
22.95000     0.07047     0.15589     1.07817     0.86490    
22.98000     0.07047     0.15589     1.07817     0.86490    
23.01000     0.07047     0.15589     1.07817     0.86490    
23.04000     0.07047     0.15589     1.07817     0.86490    
23.07000     0.07047     0.15589     1.07817     0.86490    
23.10000     0.07047     0.15589     1.07817     0.86490    
23.13000     0.07047     0.15589     1.07817     0.86490    
23.16000     0.07047     0.15589     1.07817     0.86490    
23.19000     0.07047     0.15589     1.07817     0.86490    
23.22000     0.07047     0.15589     1.07817     0.86490    
23.25000     0.07047     0.15589     1.07817     0.86490    
23.28000     0.07047     0.15589     1.07817     0.86490    
23.31000     0.07047     0.15589     1.07817     0.86490    
23.34000     0.07047     0.15589     1.07817     0.86490    
23.37000     0.07047     0.15589     1.07817     0.86490    
23.40000     0.07047     0.15589     1.07817     0.86490    
23.43000     0.07047     0.15589     1.07817     0.86490    
23.46000     0.07047     0.15589     1.07817     0.86490    
23.49000     0.07047     0.15589     1.07817     0.86490    
23.52000     0.07047     0.15589     1.07817     0.86490    
23.55000     0.07047     0.15589     1.07817     0.86490    
23.58000     0.07047     0.15589     1.07817     0.86490    
23.61000     0.07047     0.15589     1.07817     0.86490    
23.64000     0.07047     0.15589     1.07817     0.86490    
23.67000     0.07047     0.15589     1.07817     0.86490    
23.70000     0.07047     0.15589     1.07817     0.86490    
23.73000     0.07047     0.15589     1.07817     0.86490    
23.76000     0.07047     0.15589     1.07817     0.86490    
23.79000     0.07047     0.15589     1.07817     0.86490    
23.82000     0.07047     0.15589     1.07817     0.86490    
23.85000     0.07047     0.15589     1.07817     0.86490    
23.88000     0.07047     0.15589     1.07817     0.86490    
23.91000     0.07047     0.15589     1.07817     0.86490    
23.94000     0.07047     0.15589     1.07817     0.86490    
23.97000     0.07047     0.15589     1.07817     0.86490    
24.00000     0.07047     0.15589     1.07817     0.86490    
24.03000     0.07047     0.15589     1.07817     0.86490    
24.06000     0.07047     0.15589     1.07817     0.86490    
24.09000     0.07047     0.15589     1.07817     0.86490    
24.12000     0.07047     0.15589     1.07817     0.86490    
24.15000     0.07047     0.15589     1.07817     0.86490    
24.18000     0.07047     0.15589     1.07817     0.86490    
24.21000     0.07047     0.15589     1.07817     0.86490    
24.24000     0.07047     0.15589     1.07817     0.86490    
24.27000     0.07047     0.15589     1.07817     0.86490    
24.30000     0.07047     0.15589     1.07817     0.86490    
24.33000     0.07047     0.15589     1.07817     0.86490    
24.36000     0.07047     0.15589     1.07817     0.86490    
24.39000     0.07047     0.15589     1.07817     0.86490    
24.42000     0.07047     0.15589     1.07817     0.86490    
24.45000     0.07047     0.15589     1.07817     0.86490    
24.48000     0.07047     0.15589     1.07817     0.86490    
24.51000     0.07047     0.15589     1.07817     0.86490    
24.54000     0.07047     0.15589     1.07817     0.86490    
24.57000     0.07047     0.15589     1.07817     0.86490    
24.60000     0.07047     0.15589     1.07817     0.86490    
24.63000     0.07047     0.15589     1.07817     0.86490    
24.66000     0.07047     0.15589     1.07817     0.86490    
24.69000     0.07047     0.15589     1.07817     0.86490    
24.72000     0.07047     0.15589     1.07817     0.86490    
24.75000     0.07047     0.15589     1.07817     0.86490    
24.78000     0.07047     0.15589     1.07817     0.86490    
24.81000     0.07047     0.15589     1.07817     0.86490    
24.84000     0.07047     0.15589     1.07817     0.86490    
24.87000     0.07047     0.15589     1.07817     0.86490    
24.90000     0.07047     0.15589     1.07817     0.86490    
24.93000     0.07047     0.15589     1.07817     0.86490    
24.96000     0.07047     0.15589     1.07817     0.86490    
24.99000     0.07047     0.15589     1.07817     0.86490    
25.02000     0.07047     0.15589     1.07817     0.86490    
25.05000     0.07047     0.15589     1.07817     0.86490    
25.08000     0.07047     0.15589     1.07817     0.86490    
25.11000     0.07047     0.15589     1.07817     0.86490    
25.14000     0.07047     0.15589     1.07817     0.86490    
25.17000     0.07047     0.15589     1.07817     0.86490    
25.20000     0.07047     0.15589     1.07817     0.86490    
25.23000     0.07047     0.15589     1.07817     0.86490    
25.26000     0.07047     0.15589     1.07817     0.86490    
25.29000     0.07047     0.15589     1.07817     0.86490    
25.32000     0.07047     0.15589     1.07817     0.86490    
25.35000     0.07047     0.15589     1.07817     0.86490    
25.38000     0.07047     0.15589     1.07817     0.86490    
25.41000     0.07047     0.15589     1.07817     0.86490    
25.44000     0.07047     0.15589     1.07817     0.86490    
25.47000     0.07047     0.15589     1.07817     0.86490    
25.50000     0.07047     0.15589     1.07817     0.86490    
25.53000     0.07047     0.15589     1.07817     0.86490    
25.56000     0.07047     0.15589     1.07817     0.86490    
25.59000     0.07047     0.15589     1.07817     0.86490    
25.62000     0.07047     0.15589     1.07817     0.86490    
25.65000     0.07047     0.15589     1.07817     0.86490    
25.68000     0.07047     0.15589     1.07817     0.86490    
25.71000     0.07047     0.15589     1.07817     0.86490    
25.74000     0.07047     0.15589     1.07817     0.86490    
25.77000     0.07047     0.15589     1.07817     0.86490    
25.80000     0.07047     0.15589     1.07817     0.86490    
25.83000     0.07047     0.15589     1.07817     0.86490    
25.86000     0.07047     0.15589     1.07817     0.86490    
25.89000     0.07047     0.15589     1.07817     0.86490    
25.92000     0.07047     0.15589     1.07817     0.86490    
25.95000     0.07047     0.15589     1.07817     0.86490    
25.98000     0.07047     0.15589     1.07817     0.86490    
26.01000     0.07047     0.15589     1.07817     0.86490    
26.04000     0.07047     0.15589     1.07817     0.86490    
26.07000     0.07047     0.15589     1.07817     0.86490    
26.10000     0.07047     0.15589     1.07817     0.86490    
26.13000     0.07047     0.15589     1.07817     0.86490    
26.16000     0.07047     0.15589     1.07817     0.86490    
26.19000     0.07047     0.15589     1.07817     0.86490    
26.22000     0.07047     0.15589     1.07817     0.86490    
26.25000     0.07047     0.15589     1.07817     0.86490    
26.28000     0.07047     0.15589     1.07817     0.86490    
26.31000     0.07047     0.15589     1.07817     0.86490    
26.34000     0.07047     0.15589     1.07817     0.86490    
26.37000     0.07047     0.15589     1.07817     0.86490    
26.40000     0.07047     0.15589     1.07817     0.86490    
26.43000     0.07047     0.15589     1.07817     0.86490    
26.46000     0.07047     0.15589     1.07817     0.86490    
26.49000     0.07047     0.15589     1.07817     0.86490    
26.52000     0.07047     0.15589     1.07817     0.86490    
26.55000     0.07047     0.15589     1.07817     0.86490    
26.58000     0.07047     0.15589     1.07817     0.86490    
26.61000     0.07047     0.15589     1.07817     0.86490    
26.64000     0.07047     0.15589     1.07817     0.86490    
26.67000     0.07047     0.15589     1.07817     0.86490    
26.70000     0.07047     0.15589     1.07817     0.86490    
26.73000     0.07047     0.15589     1.07817     0.86490    
26.76000     0.07047     0.15589     1.07817     0.86490    
26.79000     0.07047     0.15589     1.07817     0.86490    
26.82000     0.07047     0.15589     1.07817     0.86490    
26.85000     0.07047     0.15589     1.07817     0.86490    
26.88000     0.07047     0.15589     1.07817     0.86490    
26.91000     0.07047     0.15589     1.07817     0.86490    
26.94000     0.07047     0.15589     1.07817     0.86490    
26.97000     0.07047     0.15589     1.07817     0.86490    
27.00000     0.07047     0.15589     1.07817     0.86490    
27.03000     0.07047     0.15589     1.07817     0.86490    
27.06000     0.07047     0.15589     1.07817     0.86490    
27.09000     0.07047     0.15589     1.07817     0.86490    
27.12000     0.07047     0.15589     1.07817     0.86490    
27.15000     0.07047     0.15589     1.07817     0.86490    
27.18000     0.07047     0.15589     1.07817     0.86490    
27.21000     0.07047     0.15589     1.07817     0.86490    
27.24000     0.07047     0.15589     1.07817     0.86490    
27.27000     0.07047     0.15589     1.07817     0.86490    
27.30000     0.07047     0.15589     1.07817     0.86490    
27.33000     0.07047     0.15589     1.07817     0.86490    
27.36000     0.07047     0.15589     1.07817     0.86490    
27.39000     0.07047     0.15589     1.07817     0.86490    
27.42000     0.07047     0.15589     1.07817     0.86490    
27.45000     0.07047     0.15589     1.07817     0.86490    
27.48000     0.07047     0.15589     1.07817     0.86490    
27.51000     0.07047     0.15589     1.07817     0.86490    
27.54000     0.07047     0.15589     1.07817     0.86490    
27.57000     0.07047     0.15589     1.07817     0.86490    
27.60000     0.07047     0.15589     1.07817     0.86490    
27.63000     0.07047     0.15589     1.07817     0.86490    
27.66000     0.07047     0.15589     1.07817     0.86490    
27.69000     0.07047     0.15589     1.07817     0.86490    
27.72000     0.07047     0.15589     1.07817     0.86490    
27.75000     0.07047     0.15589     1.07817     0.86490    
27.78000     0.07047     0.15589     1.07817     0.86490    
27.81000     0.07047     0.15589     1.07817     0.86490    
27.84000     0.07047     0.15589     1.07817     0.86490    
27.87000     0.07047     0.15589     1.07817     0.86490    
27.90000     0.07047     0.15589     1.07817     0.86490    
27.93000     0.07047     0.15589     1.07817     0.86490    
27.96000     0.07047     0.15589     1.07817     0.86490    
27.99000     0.07047     0.15589     1.07817     0.86490    
28.02000     0.07047     0.15589     1.07817     0.86490    
28.05000     0.07047     0.15589     1.07817     0.86490    
28.08000     0.07047     0.15589     1.07817     0.86490    
28.11000     0.07047     0.15589     1.07817     0.86490    
28.14000     0.07047     0.15589     1.07817     0.86490    
28.17000     0.07047     0.15589     1.07817     0.86490    
28.20000     0.07047     0.15589     1.07817     0.86490    
28.23000     0.07047     0.15589     1.07817     0.86490    
28.26000     0.07047     0.15589     1.07817     0.86490    
28.29000     0.07047     0.15589     1.07817     0.86490    
28.32000     0.07047     0.15589     1.07817     0.86490    
28.35000     0.07047     0.15589     1.07817     0.86490    
28.38000     0.07047     0.15589     1.07817     0.86490    
28.41000     0.07047     0.15589     1.07817     0.86490    
28.44000     0.07047     0.15589     1.07817     0.86490    
28.47000     0.07047     0.15589     1.07817     0.86490    
28.50000     0.07047     0.15589     1.07817     0.86490    
28.53000     0.07047     0.15589     1.07817     0.86490    
28.56000     0.07047     0.15589     1.07817     0.86490    
28.59000     0.07047     0.15589     1.07817     0.86490    
28.62000     0.07047     0.15589     1.07817     0.86490    
28.65000     0.07047     0.15589     1.07817     0.86490    
28.68000     0.07047     0.15589     1.07817     0.86490    
28.71000     0.07047     0.15589     1.07817     0.86490    
28.74000     0.07047     0.15589     1.07817     0.86490    
28.77000     0.07047     0.15589     1.07817     0.86490    
28.80000     0.07047     0.15589     1.07817     0.86490    
28.83000     0.07047     0.15589     1.07817     0.86490    
28.86000     0.07047     0.15589     1.07817     0.86490    
28.89000     0.07047     0.15589     1.07817     0.86490    
28.92000     0.07047     0.15589     1.07817     0.86490    
28.95000     0.07047     0.15589     1.07817     0.86490    
28.98000     0.07047     0.15589     1.07817     0.86490    
29.01000     0.07047     0.15589     1.07817     0.86490    
29.04000     0.07047     0.15589     1.07817     0.86490    
29.07000     0.07047     0.15589     1.07817     0.86490    
29.10000     0.07047     0.15589     1.07817     0.86490    
29.13000     0.07047     0.15589     1.07817     0.86490    
29.16000     0.07047     0.15589     1.07817     0.86490    
29.19000     0.07047     0.15589     1.07817     0.86490    
29.22000     0.07047     0.15589     1.07817     0.86490    
29.25000     0.07047     0.15589     1.07817     0.86490    
29.28000     0.07047     0.15589     1.07817     0.86490    
29.31000     0.07047     0.15589     1.07817     0.86490    
29.34000     0.07047     0.15589     1.07817     0.86490    
29.37000     0.07047     0.15589     1.07817     0.86490    
29.40000     0.07047     0.15589     1.07817     0.86490    
29.43000     0.07047     0.15589     1.07817     0.86490    
29.46000     0.07047     0.15589     1.07817     0.86490    
29.49000     0.07047     0.15589     1.07817     0.86490    
29.52000     0.07047     0.15589     1.07817     0.86490    
29.55000     0.07047     0.15589     1.07817     0.86490    
29.58000     0.07047     0.15589     1.07817     0.86490    
29.61000     0.07047     0.15589     1.07817     0.86490    
29.64000     0.07047     0.15589     1.07817     0.86490    
29.67000     0.07047     0.15589     1.07817     0.86490    
29.70000     0.07047     0.15589     1.07817     0.86490    
29.73000     0.07047     0.15589     1.07817     0.86490    
29.76000     0.07047     0.15589     1.07817     0.86490    
29.79000     0.07047     0.15589     1.07817     0.86490    
29.82000     0.07047     0.15589     1.07817     0.86490    
29.85000     0.07047     0.15589     1.07817     0.86490    
29.88000     0.07047     0.15589     1.07817     0.86490    
29.91000     0.07047     0.15589     1.07817     0.86490    
29.94000     0.07047     0.15589     1.07817     0.86490    
29.97000     0.07047     0.15589     1.07817     0.86490    
30.00000     0.07047     0.15589     1.07817     0.86490    
30.03000     0.07047     0.15589     1.07817     0.86490    
30.06000     0.07047     0.15589     1.07817     0.86490    
30.09000     0.07047     0.15589     1.07817     0.86490    
30.12000     0.07047     0.15589     1.07817     0.86490    
30.15000     0.07047     0.15589     1.07817     0.86490    
30.18000     0.07047     0.15589     1.07817     0.86490    
30.21000     0.07047     0.15589     1.07817     0.86490    
30.24000     0.07047     0.15589     1.07817     0.86490    
30.27000     0.07047     0.15589     1.07817     0.86490    
30.30000     0.07047     0.15589     1.07817     0.86490    
30.33000     0.07047     0.15589     1.07817     0.86490    
30.36000     0.07047     0.15589     1.07817     0.86490    
30.39000     0.07047     0.15589     1.07817     0.86490    
30.42000     0.07047     0.15589     1.07817     0.86490    
30.45000     0.07047     0.15589     1.07817     0.86490    
30.48000     0.07047     0.15589     1.07817     0.86490    
30.51000     0.07047     0.15589     1.07817     0.86490    
30.54000     0.07047     0.15589     1.07817     0.86490    
30.57000     0.07047     0.15589     1.07817     0.86490    
30.60000     0.07047     0.15589     1.07817     0.86490    
30.63000     0.07047     0.15589     1.07817     0.86490    
30.66000     0.07047     0.15589     1.07817     0.86490    
30.69000     0.07047     0.15589     1.07817     0.86490    
30.72000     0.07047     0.15589     1.07817     0.86490    
30.75000     0.07047     0.15589     1.07817     0.86490    
30.78000     0.07047     0.15589     1.07817     0.86490    
30.81000     0.07047     0.15589     1.07817     0.86490    
30.84000     0.07047     0.15589     1.07817     0.86490    
30.87000     0.07047     0.15589     1.07817     0.86490    
30.90000     0.07047     0.15589     1.07817     0.86490    
30.93000     0.07047     0.15589     1.07817     0.86490    
30.96000     0.07047     0.15589     1.07817     0.86490    
30.99000     0.07047     0.15589     1.07817     0.86490    
31.02000     0.07047     0.15589     1.07817     0.86490    
31.05000     0.07047     0.15589     1.07817     0.86490    
31.08000     0.07047     0.15589     1.07817     0.86490    
31.11000     0.07047     0.15589     1.07817     0.86490    
31.14000     0.07047     0.15589     1.07817     0.86490    
31.17000     0.07047     0.15589     1.07817     0.86490    
31.20000     0.07047     0.15589     1.07817     0.86490    
31.23000     0.07047     0.15589     1.07817     0.86490    
31.26000     0.07047     0.15589     1.07817     0.86490    
31.29000     0.07047     0.15589     1.07817     0.86490    
31.32000     0.07047     0.15589     1.07817     0.86490    
31.35000     0.07047     0.15589     1.07817     0.86490    
31.38000     0.07047     0.15589     1.07817     0.86490    
31.41000     0.07047     0.15589     1.07817     0.86490    
31.44000     0.07047     0.15589     1.07817     0.86490    
31.47000     0.07047     0.15589     1.07817     0.86490    
31.50000     0.07047     0.15589     1.07817     0.86490    
31.53000     0.07047     0.15589     1.07817     0.86490    
31.56000     0.07047     0.15589     1.07817     0.86490    
31.59000     0.07047     0.15589     1.07817     0.86490    
31.62000     0.07047     0.15589     1.07817     0.86490    
31.65000     0.07047     0.15589     1.07817     0.86490    
31.68000     0.07047     0.15589     1.07817     0.86490    
31.71000     0.07047     0.15589     1.07817     0.86490    
31.74000     0.07047     0.15589     1.07817     0.86490    
31.77000     0.07047     0.15589     1.07817     0.86490    
31.80000     0.07047     0.15589     1.07817     0.86490    
31.83000     0.07047     0.15589     1.07817     0.86490    
31.86000     0.07047     0.15589     1.07817     0.86490    
31.89000     0.07047     0.15589     1.07817     0.86490    
31.92000     0.07047     0.15589     1.07817     0.86490    
31.95000     0.07047     0.15589     1.07817     0.86490    
31.98000     0.07047     0.15589     1.07817     0.86490    
32.01000     0.07047     0.15589     1.07817     0.86490    
32.04000     0.07047     0.15589     1.07817     0.86490    
32.07000     0.07047     0.15589     1.07817     0.86490    
32.10000     0.07047     0.15589     1.07817     0.86490    
32.13000     0.07047     0.15589     1.07817     0.86490    
32.16000     0.07047     0.15589     1.07817     0.86490    
32.19000     0.07047     0.15589     1.07817     0.86490    
32.22000     0.07047     0.15589     1.07817     0.86490    
32.25000     0.07047     0.15589     1.07817     0.86490    
32.28000     0.07047     0.15589     1.07817     0.86490    
32.31000     0.07047     0.15589     1.07817     0.86490    
32.34000     0.07047     0.15589     1.07817     0.86490    
32.37000     0.07047     0.15589     1.07817     0.86490    
32.40000     0.07047     0.15589     1.07817     0.86490    
32.43000     0.07047     0.15589     1.07817     0.86490    
32.46000     0.07047     0.15589     1.07817     0.86490    
32.49000     0.07047     0.15589     1.07817     0.86490    
32.52000     0.07047     0.15589     1.07817     0.86490    
32.55000     0.07047     0.15589     1.07817     0.86490    
32.58000     0.07047     0.15589     1.07817     0.86490    
32.61000     0.07047     0.15589     1.07817     0.86490    
32.64000     0.07047     0.15589     1.07817     0.86490    
32.67000     0.07047     0.15589     1.07817     0.86490    
32.70000     0.07047     0.15589     1.07817     0.86490    
32.73000     0.07047     0.15589     1.07817     0.86490    
32.76000     0.07047     0.15589     1.07817     0.86490    
32.79000     0.07047     0.15589     1.07817     0.86490    
32.82000     0.07047     0.15589     1.07817     0.86490    
32.85000     0.07047     0.15589     1.07817     0.86490    
32.88000     0.07047     0.15589     1.07817     0.86490    
32.91000     0.07047     0.15589     1.07817     0.86490    
32.94000     0.07047     0.15589     1.07817     0.86490    
32.97000     0.07047     0.15589     1.07817     0.86490    
33.00000     0.07047     0.15589     1.07817     0.86490    
33.03000     0.07047     0.15589     1.07817     0.86490    
33.06000     0.07047     0.15589     1.07817     0.86490    
33.09000     0.07047     0.15589     1.07817     0.86490    
33.12000     0.07047     0.15589     1.07817     0.86490    
33.15000     0.07047     0.15589     1.07817     0.86490    
33.18000     0.07047     0.15589     1.07817     0.86490    
33.21000     0.07047     0.15589     1.07817     0.86490    
33.24000     0.07047     0.15589     1.07817     0.86490    
33.27000     0.07047     0.15589     1.07817     0.86490    
33.30000     0.07047     0.15589     1.07817     0.86490    
33.33000     0.07047     0.15589     1.07817     0.86490    
33.36000     0.07047     0.15589     1.07817     0.86490    
33.39000     0.07047     0.15589     1.07817     0.86490    
33.42000     0.07047     0.15589     1.07817     0.86490    
33.45000     0.07047     0.15589     1.07817     0.86490    
33.48000     0.07047     0.15589     1.07817     0.86490    
33.51000     0.07047     0.15589     1.07817     0.86490    
33.54000     0.07047     0.15589     1.07817     0.86490    
33.57000     0.07047     0.15589     1.07817     0.86490    
33.60000     0.07047     0.15589     1.07817     0.86490    
33.63000     0.07047     0.15589     1.07817     0.86490    
33.66000     0.07047     0.15589     1.07817     0.86490    
33.69000     0.07047     0.15589     1.07817     0.86490    
33.72000     0.07047     0.15589     1.07817     0.86490    
33.75000     0.07047     0.15589     1.07817     0.86490    
33.78000     0.07047     0.15589     1.07817     0.86490    
33.81000     0.07047     0.15589     1.07817     0.86490    
33.84000     0.07047     0.15589     1.07817     0.86490    
33.87000     0.07047     0.15589     1.07817     0.86490    
33.90000     0.07047     0.15589     1.07817     0.86490    
33.93000     0.07047     0.15589     1.07817     0.86490    
33.96000     0.07047     0.15589     1.07817     0.86490    
33.99000     0.07047     0.15589     1.07817     0.86490    
34.02000     0.07047     0.15589     1.07817     0.86490    
34.05000     0.07047     0.15589     1.07817     0.86490    
34.08000     0.07047     0.15589     1.07817     0.86490    
34.11000     0.07047     0.15589     1.07817     0.86490    
34.14000     0.07047     0.15589     1.07817     0.86490    
34.17000     0.07047     0.15589     1.07817     0.86490    
34.20000     0.07047     0.15589     1.07817     0.86490    
34.23000     0.07047     0.15589     1.07817     0.86490    
34.26000     0.07047     0.15589     1.07817     0.86490    
34.29000     0.07047     0.15589     1.07817     0.86490    
34.32000     0.07047     0.15589     1.07817     0.86490    
34.35000     0.07047     0.15589     1.07817     0.86490    
34.38000     0.07047     0.15589     1.07817     0.86490    
34.41000     0.07047     0.15589     1.07817     0.86490    
34.44000     0.07047     0.15589     1.07817     0.86490    
34.47000     0.07047     0.15589     1.07817     0.86490    
34.50000     0.07047     0.15589     1.07817     0.86490    
34.53000     0.07047     0.15589     1.07817     0.86490    
34.56000     0.07047     0.15589     1.07817     0.86490    
34.59000     0.07047     0.15589     1.07817     0.86490    
34.62000     0.07047     0.15589     1.07817     0.86490    
34.65000     0.07047     0.15589     1.07817     0.86490    
34.68000     0.07047     0.15589     1.07817     0.86490    
34.71000     0.07047     0.15589     1.07817     0.86490    
34.74000     0.07047     0.15589     1.07817     0.86490    
34.77000     0.07047     0.15589     1.07817     0.86490    
34.80000     0.07047     0.15589     1.07817     0.86490    
34.83000     0.07047     0.15589     1.07817     0.86490    
34.86000     0.07047     0.15589     1.07817     0.86490    
34.89000     0.07047     0.15589     1.07817     0.86490    
34.92000     0.07047     0.15589     1.07817     0.86490    
34.95000     0.07047     0.15589     1.07817     0.86490    
34.98000     0.07047     0.15589     1.07817     0.86490    
35.01000     0.07047     0.15589     1.07817     0.86490    
35.04000     0.07047     0.15589     1.07817     0.86490    
35.07000     0.07047     0.15589     1.07817     0.86490    
35.10000     0.07047     0.15589     1.07817     0.86490    
35.13000     0.07047     0.15589     1.07817     0.86490    
35.16000     0.07047     0.15589     1.07817     0.86490    
35.19000     0.07047     0.15589     1.07817     0.86490    
35.22000     0.07047     0.15589     1.07817     0.86490    
35.25000     0.07047     0.15589     1.07817     0.86490    
35.28000     0.07047     0.15589     1.07817     0.86490    
35.31000     0.07047     0.15589     1.07817     0.86490    
35.34000     0.07047     0.15589     1.07817     0.86490    
35.37000     0.07047     0.15589     1.07817     0.86490    
35.40000     0.07047     0.15589     1.07817     0.86490    
35.43000     0.07047     0.15589     1.07817     0.86490    
35.46000     0.07047     0.15589     1.07817     0.86490    
35.49000     0.07047     0.15589     1.07817     0.86490    
35.52000     0.07047     0.15589     1.07817     0.86490    
35.55000     0.07047     0.15589     1.07817     0.86490    
35.58000     0.07047     0.15589     1.07817     0.86490    
35.61000     0.07047     0.15589     1.07817     0.86490    
35.64000     0.07047     0.15589     1.07817     0.86490    
35.67000     0.07047     0.15589     1.07817     0.86490    
35.70000     0.07047     0.15589     1.07817     0.86490    
35.73000     0.07047     0.15589     1.07817     0.86490    
35.76000     0.07047     0.15589     1.07817     0.86490    
35.79000     0.07047     0.15589     1.07817     0.86490    
35.82000     0.07047     0.15589     1.07817     0.86490    
35.85000     0.07047     0.15589     1.07817     0.86490    
35.88000     0.07047     0.15589     1.07817     0.86490    
35.91000     0.07047     0.15589     1.07817     0.86490    
35.94000     0.07047     0.15589     1.07817     0.86490    
35.97000     0.07047     0.15589     1.07817     0.86490    
36.00000     0.07047     0.15589     1.07817     0.86490    
36.03000     0.07047     0.15589     1.07817     0.86490    
36.06000     0.07047     0.15589     1.07817     0.86490    
36.09000     0.07047     0.15589     1.07817     0.86490    
36.12000     0.07047     0.15589     1.07817     0.86490    
36.15000     0.07047     0.15589     1.07817     0.86490    
36.18000     0.07047     0.15589     1.07817     0.86490    
36.21000     0.07047     0.15589     1.07817     0.86490    
36.24000     0.07047     0.15589     1.07817     0.86490    
36.27000     0.07047     0.15589     1.07817     0.86490    
36.30000     0.07047     0.15589     1.07817     0.86490    
36.33000     0.07047     0.15589     1.07817     0.86490    
36.36000     0.07047     0.15589     1.07817     0.86490    
36.39000     0.07047     0.15589     1.07817     0.86490    
36.42000     0.07047     0.15589     1.07817     0.86490    
36.45000     0.07047     0.15589     1.07817     0.86490    
36.48000     0.07047     0.15589     1.07817     0.86490    
36.51000     0.07047     0.15589     1.07817     0.86490    
36.54000     0.07047     0.15589     1.07817     0.86490    
36.57000     0.07047     0.15589     1.07817     0.86490    
36.60000     0.07047     0.15589     1.07817     0.86490    
36.63000     0.07047     0.15589     1.07817     0.86490    
36.66000     0.07047     0.15589     1.07817     0.86490    
36.69000     0.07047     0.15589     1.07817     0.86490    
36.72000     0.07047     0.15589     1.07817     0.86490    
36.75000     0.07047     0.15589     1.07817     0.86490    
36.78000     0.07047     0.15589     1.07817     0.86490    
36.81000     0.07047     0.15589     1.07817     0.86490    
36.84000     0.07047     0.15589     1.07817     0.86490    
36.87000     0.07047     0.15589     1.07817     0.86490    
36.90000     0.07047     0.15589     1.07817     0.86490    
36.93000     0.07047     0.15589     1.07817     0.86490    
36.96000     0.07047     0.15589     1.07817     0.86490    
36.99000     0.07047     0.15589     1.07817     0.86490    
37.02000     0.07047     0.15589     1.07817     0.86490    
37.05000     0.07047     0.15589     1.07817     0.86490    
37.08000     0.07047     0.15589     1.07817     0.86490    
37.11000     0.07047     0.15589     1.07817     0.86490    
37.14000     0.07047     0.15589     1.07817     0.86490    
37.17000     0.07047     0.15589     1.07817     0.86490    
37.20000     0.07047     0.15589     1.07817     0.86490    
37.23000     0.07047     0.15589     1.07817     0.86490    
37.26000     0.07047     0.15589     1.07817     0.86490    
37.29000     0.07047     0.15589     1.07817     0.86490    
37.32000     0.07047     0.15589     1.07817     0.86490    
37.35000     0.07047     0.15589     1.07817     0.86490    
37.38000     0.07047     0.15589     1.07817     0.86490    
37.41000     0.07047     0.15589     1.07817     0.86490    
37.44000     0.07047     0.15589     1.07817     0.86490    
37.47000     0.07047     0.15589     1.07817     0.86490    
37.50000     0.07047     0.15589     1.07817     0.86490    
37.53000     0.07047     0.15589     1.07817     0.86490    
37.56000     0.07047     0.15589     1.07817     0.86490    
37.59000     0.07047     0.15589     1.07817     0.86490    
37.62000     0.07047     0.15589     1.07817     0.86490    
37.65000     0.07047     0.15589     1.07817     0.86490    
37.68000     0.07047     0.15589     1.07817     0.86490    
37.71000     0.07047     0.15589     1.07817     0.86490    
37.74000     0.07047     0.15589     1.07817     0.86490    
37.77000     0.07047     0.15589     1.07817     0.86490    
37.80000     0.07047     0.15589     1.07817     0.86490    
37.83000     0.07047     0.15589     1.07817     0.86490    
37.86000     0.07047     0.15589     1.07817     0.86490    
37.89000     0.07047     0.15589     1.07817     0.86490    
37.92000     0.07047     0.15589     1.07817     0.86490    
37.95000     0.07047     0.15589     1.07817     0.86490    
37.98000     0.07047     0.15589     1.07817     0.86490    
38.01000     0.07047     0.15589     1.07817     0.86490    
38.04000     0.07047     0.15589     1.07817     0.86490    
38.07000     0.07047     0.15589     1.07817     0.86490    
38.10000     0.07047     0.15589     1.07817     0.86490    
38.13000     0.07047     0.15589     1.07817     0.86490    
38.16000     0.07047     0.15589     1.07817     0.86490    
38.19000     0.07047     0.15589     1.07817     0.86490    
38.22000     0.07047     0.15589     1.07817     0.86490    
38.25000     0.07047     0.15589     1.07817     0.86490    
38.28000     0.07047     0.15589     1.07817     0.86490    
38.31000     0.07047     0.15589     1.07817     0.86490    
38.34000     0.07047     0.15589     1.07817     0.86490    
38.37000     0.07047     0.15589     1.07817     0.86490    
38.40000     0.07047     0.15589     1.07817     0.86490    
38.43000     0.07047     0.15589     1.07817     0.86490    
38.46000     0.07047     0.15589     1.07817     0.86490    
38.49000     0.07047     0.15589     1.07817     0.86490    
38.52000     0.07047     0.15589     1.07817     0.86490    
38.55000     0.07047     0.15589     1.07817     0.86490    
38.58000     0.07047     0.15589     1.07817     0.86490    
38.61000     0.07047     0.15589     1.07817     0.86490    
38.64000     0.07047     0.15589     1.07817     0.86490    
38.67000     0.07047     0.15589     1.07817     0.86490    
38.70000     0.07047     0.15589     1.07817     0.86490    
38.73000     0.07047     0.15589     1.07817     0.86490    
38.76000     0.07047     0.15589     1.07817     0.86490    
38.79000     0.07047     0.15589     1.07817     0.86490    
38.82000     0.07047     0.15589     1.07817     0.86490    
38.85000     0.07047     0.15589     1.07817     0.86490    
38.88000     0.07047     0.15589     1.07817     0.86490    
38.91000     0.07047     0.15589     1.07817     0.86490    
38.94000     0.07047     0.15589     1.07817     0.86490    
38.97000     0.07047     0.15589     1.07817     0.86490    
39.00000     0.07047     0.15589     1.07817     0.86490    
39.03000     0.07047     0.15589     1.07817     0.86490    
39.06000     0.07047     0.15589     1.07817     0.86490    
39.09000     0.07047     0.15589     1.07817     0.86490    
39.12000     0.07047     0.15589     1.07817     0.86490    
39.15000     0.07047     0.15589     1.07817     0.86490    
39.18000     0.07047     0.15589     1.07817     0.86490    
39.21000     0.07047     0.15589     1.07817     0.86490    
39.24000     0.07047     0.15589     1.07817     0.86490    
39.27000     0.07047     0.15589     1.07817     0.86490    
39.30000     0.07047     0.15589     1.07817     0.86490    
39.33000     0.07047     0.15589     1.07817     0.86490    
39.36000     0.07047     0.15589     1.07817     0.86490    
39.39000     0.07047     0.15589     1.07817     0.86490    
39.42000     0.07047     0.15589     1.07817     0.86490    
39.45000     0.07047     0.15589     1.07817     0.86490    
39.48000     0.07047     0.15589     1.07817     0.86490    
39.51000     0.07047     0.15589     1.07817     0.86490    
39.54000     0.07047     0.15589     1.07817     0.86490    
39.57000     0.07047     0.15589     1.07817     0.86490    
39.60000     0.07047     0.15589     1.07817     0.86490    
39.63000     0.07047     0.15589     1.07817     0.86490    
39.66000     0.07047     0.15589     1.07817     0.86490    
39.69000     0.07047     0.15589     1.07817     0.86490    
39.72000     0.07047     0.15589     1.07817     0.86490    
39.75000     0.07047     0.15589     1.07817     0.86490    
39.78000     0.07047     0.15589     1.07817     0.86490    
39.81000     0.07047     0.15589     1.07817     0.86490    
39.84000     0.07047     0.15589     1.07817     0.86490    
39.87000     0.07047     0.15589     1.07817     0.86490    
39.90000     0.07047     0.15589     1.07817     0.86490    
39.93000     0.07047     0.15589     1.07817     0.86490    
39.96000     0.07047     0.15589     1.07817     0.86490    
39.99000     0.07047     0.15589     1.07817     0.86490    
40.02000     0.07047     0.15589     1.07817     0.86490    
40.05000     0.07047     0.15589     1.07817     0.86490    
40.08000     0.07047     0.15589     1.07817     0.86490    
40.11000     0.07047     0.15589     1.07817     0.86490    
40.14000     0.07047     0.15589     1.07817     0.86490    
40.17000     0.07047     0.15589     1.07817     0.86490    
40.20000     0.07047     0.15589     1.07817     0.86490    
40.23000     0.07047     0.15589     1.07817     0.86490    
40.26000     0.07047     0.15589     1.07817     0.86490    
40.29000     0.07047     0.15589     1.07817     0.86490    
40.32000     0.07047     0.15589     1.07817     0.86490    
40.35000     0.07047     0.15589     1.07817     0.86490    
40.38000     0.07047     0.15589     1.07817     0.86490    
40.41000     0.07047     0.15589     1.07817     0.86490    
40.44000     0.07047     0.15589     1.07817     0.86490    
40.47000     0.07047     0.15589     1.07817     0.86490    
40.50000     0.07047     0.15589     1.07817     0.86490    
40.53000     0.07047     0.15589     1.07817     0.86490    
40.56000     0.07047     0.15589     1.07817     0.86490    
40.59000     0.07047     0.15589     1.07817     0.86490    
40.62000     0.07047     0.15589     1.07817     0.86490    
40.65000     0.07047     0.15589     1.07817     0.86490    
40.68000     0.07047     0.15589     1.07817     0.86490    
40.71000     0.07047     0.15589     1.07817     0.86490    
40.74000     0.07047     0.15589     1.07817     0.86490    
40.77000     0.07047     0.15589     1.07817     0.86490    
40.80000     0.07047     0.15589     1.07817     0.86490    
40.83000     0.07047     0.15589     1.07817     0.86490    
40.86000     0.07047     0.15589     1.07817     0.86490    
40.89000     0.07047     0.15589     1.07817     0.86490    
40.92000     0.07047     0.15589     1.07817     0.86490    
40.95000     0.07047     0.15589     1.07817     0.86490    
40.98000     0.07047     0.15589     1.07817     0.86490    
41.01000     0.07047     0.15589     1.07817     0.86490    
41.04000     0.07047     0.15589     1.07817     0.86490    
41.07000     0.07047     0.15589     1.07817     0.86490    
41.10000     0.07047     0.15589     1.07817     0.86490    
41.13000     0.07047     0.15589     1.07817     0.86490    
41.16000     0.07047     0.15589     1.07817     0.86490    
41.19000     0.07047     0.15589     1.07817     0.86490    
41.22000     0.07047     0.15589     1.07817     0.86490    
41.25000     0.07047     0.15589     1.07817     0.86490    
41.28000     0.07047     0.15589     1.07817     0.86490    
41.31000     0.07047     0.15589     1.07817     0.86490    
41.34000     0.07047     0.15589     1.07817     0.86490    
41.37000     0.07047     0.15589     1.07817     0.86490    
41.40000     0.07047     0.15589     1.07817     0.86490    
41.43000     0.07047     0.15589     1.07817     0.86490    
41.46000     0.07047     0.15589     1.07817     0.86490    
41.49000     0.07047     0.15589     1.07817     0.86490    
41.52000     0.07047     0.15589     1.07817     0.86490    
41.55000     0.07047     0.15589     1.07817     0.86490    
41.58000     0.07047     0.15589     1.07817     0.86490    
41.61000     0.07047     0.15589     1.07817     0.86490    
41.64000     0.07047     0.15589     1.07817     0.86490    
41.67000     0.07047     0.15589     1.07817     0.86490    
41.70000     0.07047     0.15589     1.07817     0.86490    
41.73000     0.07047     0.15589     1.07817     0.86490    
41.76000     0.07047     0.15589     1.07817     0.86490    
41.79000     0.07047     0.15589     1.07817     0.86490    
41.82000     0.07047     0.15589     1.07817     0.86490    
41.85000     0.07047     0.15589     1.07817     0.86490    
41.88000     0.07047     0.15589     1.07817     0.86490    
41.91000     0.07047     0.15589     1.07817     0.86490    
41.94000     0.07047     0.15589     1.07817     0.86490    
41.97000     0.07047     0.15589     1.07817     0.86490    
42.00000     0.07047     0.15589     1.07817     0.86490    
42.03000     0.07047     0.15589     1.07817     0.86490    
42.06000     0.07047     0.15589     1.07817     0.86490    
42.09000     0.07047     0.15589     1.07817     0.86490    
42.12000     0.07047     0.15589     1.07817     0.86490    
42.15000     0.07047     0.15589     1.07817     0.86490    
42.18000     0.07047     0.15589     1.07817     0.86490    
42.21000     0.07047     0.15589     1.07817     0.86490    
42.24000     0.07047     0.15589     1.07817     0.86490    
42.27000     0.07047     0.15589     1.07817     0.86490    
42.30000     0.07047     0.15589     1.07817     0.86490    
42.33000     0.07047     0.15589     1.07817     0.86490    
42.36000     0.07047     0.15589     1.07817     0.86490    
42.39000     0.07047     0.15589     1.07817     0.86490    
42.42000     0.07047     0.15589     1.07817     0.86490    
42.45000     0.07047     0.15589     1.07817     0.86490    
42.48000     0.07047     0.15589     1.07817     0.86490    
42.51000     0.07047     0.15589     1.07817     0.86490    
42.54000     0.07047     0.15589     1.07817     0.86490    
42.57000     0.07047     0.15589     1.07817     0.86490    
42.60000     0.07047     0.15589     1.07817     0.86490    
42.63000     0.07047     0.15589     1.07817     0.86490    
42.66000     0.07047     0.15589     1.07817     0.86490    
42.69000     0.07047     0.15589     1.07817     0.86490    
42.72000     0.07047     0.15589     1.07817     0.86490    
42.75000     0.07047     0.15589     1.07817     0.86490    
42.78000     0.07047     0.15589     1.07817     0.86490    
42.81000     0.07047     0.15589     1.07817     0.86490    
42.84000     0.07047     0.15589     1.07817     0.86490    
42.87000     0.07047     0.15589     1.07817     0.86490    
42.90000     0.07047     0.15589     1.07817     0.86490    
42.93000     0.07047     0.15589     1.07817     0.86490    
42.96000     0.07047     0.15589     1.07817     0.86490    
42.99000     0.07047     0.15589     1.07817     0.86490    
43.02000     0.07047     0.15589     1.07817     0.86490    
43.05000     0.07047     0.15589     1.07817     0.86490    
43.08000     0.07047     0.15589     1.07817     0.86490    
43.11000     0.07047     0.15589     1.07817     0.86490    
43.14000     0.07047     0.15589     1.07817     0.86490    
43.17000     0.07047     0.15589     1.07817     0.86490    
43.20000     0.07047     0.15589     1.07817     0.86490    
43.23000     0.07047     0.15589     1.07817     0.86490    
43.26000     0.07047     0.15589     1.07817     0.86490    
43.29000     0.07047     0.15589     1.07817     0.86490    
43.32000     0.07047     0.15589     1.07817     0.86490    
43.35000     0.07047     0.15589     1.07817     0.86490    
43.38000     0.07047     0.15589     1.07817     0.86490    
43.41000     0.07047     0.15589     1.07817     0.86490    
43.44000     0.07047     0.15589     1.07817     0.86490    
43.47000     0.07047     0.15589     1.07817     0.86490    
43.50000     0.07047     0.15589     1.07817     0.86490    
43.53000     0.07047     0.15589     1.07817     0.86490    
43.56000     0.07047     0.15589     1.07817     0.86490    
43.59000     0.07047     0.15589     1.07817     0.86490    
43.62000     0.07047     0.15589     1.07817     0.86490    
43.65000     0.07047     0.15589     1.07817     0.86490    
43.68000     0.07047     0.15589     1.07817     0.86490    
43.71000     0.07047     0.15589     1.07817     0.86490    
43.74000     0.07047     0.15589     1.07817     0.86490    
43.77000     0.07047     0.15589     1.07817     0.86490    
43.80000     0.07047     0.15589     1.07817     0.86490    
43.83000     0.07047     0.15589     1.07817     0.86490    
43.86000     0.07047     0.15589     1.07817     0.86490    
43.89000     0.07047     0.15589     1.07817     0.86490    
43.92000     0.07047     0.15589     1.07817     0.86490    
43.95000     0.07047     0.15589     1.07817     0.86490    
43.98000     0.07047     0.15589     1.07817     0.86490    
44.01000     0.07047     0.15589     1.07817     0.86490    
44.04000     0.07047     0.15589     1.07817     0.86490    
44.07000     0.07047     0.15589     1.07817     0.86490    
44.10000     0.07047     0.15589     1.07817     0.86490    
44.13000     0.07047     0.15589     1.07817     0.86490    
44.16000     0.07047     0.15589     1.07817     0.86490    
44.19000     0.07047     0.15589     1.07817     0.86490    
44.22000     0.07047     0.15589     1.07817     0.86490    
44.25000     0.07047     0.15589     1.07817     0.86490    
44.28000     0.07047     0.15589     1.07817     0.86490    
44.31000     0.07047     0.15589     1.07817     0.86490    
44.34000     0.07047     0.15589     1.07817     0.86490    
44.37000     0.07047     0.15589     1.07817     0.86490    
44.40000     0.07047     0.15589     1.07817     0.86490    
44.43000     0.07047     0.15589     1.07817     0.86490    
44.46000     0.07047     0.15589     1.07817     0.86490    
44.49000     0.07047     0.15589     1.07817     0.86490    
44.52000     0.07047     0.15589     1.07817     0.86490    
44.55000     0.07047     0.15589     1.07817     0.86490    
44.58000     0.07047     0.15589     1.07817     0.86490    
44.61000     0.07047     0.15589     1.07817     0.86490    
44.64000     0.07047     0.15589     1.07817     0.86490    
44.67000     0.07047     0.15589     1.07817     0.86490    
44.70000     0.07047     0.15589     1.07817     0.86490    
44.73000     0.07047     0.15589     1.07817     0.86490    
44.76000     0.07047     0.15589     1.07817     0.86490    
44.79000     0.07047     0.15589     1.07817     0.86490    
44.82000     0.07047     0.15589     1.07817     0.86490    
44.85000     0.07047     0.15589     1.07817     0.86490    
44.88000     0.07047     0.15589     1.07817     0.86490    
44.91000     0.07047     0.15589     1.07817     0.86490    
44.94000     0.07047     0.15589     1.07817     0.86490    
